Absorbance:209,
177.674,-0.6
177.893,-0.39
178.111,-0.41
178.329,-0.49
178.547,-0.4
178.766,-0.23
178.984,0
179.202,1.17
179.42,0.15
179.638,0.32
179.856,-0.05
180.075,-0.09
180.293,-0.13
180.511,0.72
180.729,0.1
180.947,-0.05
181.165,-0.05
181.383,0.11
181.601,0.06
181.819,0.12
182.037,0.1
182.255,0.08
182.473,0.02
182.691,0.04
182.909,0.03
183.127,0.05
183.345,0.07
183.563,0.08
183.781,0.09
183.999,0.07
184.217,0.06
184.435,0.07
184.653,0.08
184.871,0.08
185.089,0.11
185.307,0.13
185.525,0.12
185.742,0.12
185.96,0.15
186.178,0.16
186.396,0.12
186.614,0.12
186.832,0.11
187.049,0.05
187.267,0.03
187.485,0.05
187.703,0.09
187.921,0.08
188.138,0.1
188.356,0.09
188.574,0.1
188.792,0.1
189.009,0.09
189.227,0.12
189.445,0.14
189.662,0.13
189.88,0.12
190.098,0.15
190.315,0.14
190.533,0.16
190.751,0.19
190.968,0.18
191.186,0.16
191.403,0.15
191.621,0.15
191.839,0.14
192.056,0.13
192.274,0.14
192.491,0.14
192.709,0.13
192.926,0.09
193.144,0.07
193.361,0.07
193.579,0.07
193.796,0.09
194.014,0.1
194.231,0.13
194.449,0.2
194.666,0.23
194.883,0.21
195.101,0.19
195.318,0.18
195.536,0.14
195.753,0.12
195.97,0.15
196.188,0.18
196.405,0.18
196.623,0.17
196.84,0.18
197.057,0.1
197.275,0.12
197.492,0.1
197.709,0.14
197.926,0.12
198.144,0.14
198.361,0.12
198.578,0.15
198.795,0.14
199.013,0.13
199.23,0.14
199.447,0.16
199.664,0.16
199.881,0.14
200.099,0.15
200.316,0.14
200.533,0.14
200.75,0.1
200.967,0.12
201.184,0.08
201.401,0.1
201.619,0.09
201.836,0.11
202.053,0.09
202.27,0.12
202.487,0.13
202.704,0.17
202.921,0.21
203.138,0.22
203.355,0.24
203.572,0.2
203.789,0.17
204.006,0.15
204.223,0.16
204.44,0.18
204.657,0.21
204.874,0.17
205.091,0.18
205.308,0.14
205.525,0.1
205.741,0.1
205.958,0.13
206.175,0.1
206.392,0.13
206.609,0.14
206.826,0.13
207.043,0.09
207.259,0.09
207.476,0.09
207.693,0.11
207.91,0.1
208.127,0.15
208.343,0.16
208.56,0.14
208.777,0.12
208.994,0.12
209.21,0.12
209.427,0.11
209.644,0.12
209.861,0.12
210.077,0.13
210.294,0.13
210.511,0.13
210.727,0.15
210.944,0.18
211.161,0.2
211.377,0.16
211.594,0.16
211.81,0.18
212.027,0.17
212.244,0.16
212.46,0.19
212.677,0.23
212.893,0.15
213.11,0.16
213.326,0.13
213.543,0.12
213.759,0.12
213.976,0.15
214.192,0.14
214.409,0.19
214.625,0.21
214.842,0.19
215.058,0.18
215.275,0.15
215.491,0.13
215.707,0.1
215.924,0.11
216.14,0.12
216.357,0.14
216.573,0.14
216.789,0.15
217.006,0.15
217.222,0.11
217.438,0.11
217.655,0.09
217.871,0.09
218.087,0.08
218.304,0.13
218.52,0.09
218.736,0.14
218.952,0.15
219.169,0.17
219.385,0.17
219.601,0.22
219.817,0.17
220.033,0.16
220.25,0.16
220.466,0.16
220.682,0.16
220.898,0.14
221.114,0.14
221.33,0.13
221.546,0.13
221.763,0.13
221.979,0.18
222.195,0.17
222.411,0.16
222.627,0.16
222.843,0.15
223.059,0.14
223.275,0.15
223.491,0.15
223.707,0.15
223.923,0.13
224.139,0.14
224.355,0.14
224.571,0.16
224.787,0.14
225.003,0.14
225.219,0.14
225.435,0.14
225.651,0.12
225.867,0.17
226.083,0.19
226.298,0.19
226.514,0.16
226.73,0.16
226.946,0.14
227.162,0.15
227.378,0.13
227.594,0.18
227.809,0.18
228.025,0.19
228.241,0.19
228.457,0.17
228.672,0.17
228.888,0.17
229.104,0.16
229.32,0.17
229.535,0.19
229.751,0.2
229.967,0.2
230.183,0.2
230.398,0.17
230.614,0.17
230.83,0.12
231.045,0.14
231.261,0.14
231.476,0.16
231.692,0.16
231.908,0.16
232.123,0.18
232.339,0.16
232.554,0.16
232.77,0.15
232.986,0.18
233.201,0.17
233.417,0.21
233.632,0.22
233.848,0.23
234.063,0.21
234.279,0.21
234.494,0.2
234.71,0.18
234.925,0.18
235.14,0.18
235.356,0.2
235.571,0.17
235.787,0.22
236.002,0.25
236.217,0.25
236.433,0.23
236.648,0.25
236.864,0.2
237.079,0.2
237.294,0.2
237.51,0.2
237.725,0.2
237.94,0.22
238.155,0.2
238.371,0.2
238.586,0.21
238.801,0.2
239.016,0.19
239.232,0.18
239.447,0.18
239.662,0.2
239.877,0.23
240.093,0.22
240.308,0.22
240.523,0.24
240.738,0.24
240.953,0.26
241.168,0.24
241.383,0.24
241.599,0.25
241.814,0.22
242.029,0.22
242.244,0.25
242.459,0.26
242.674,0.25
242.889,0.25
243.104,0.23
243.319,0.21
243.534,0.2
243.749,0.21
243.964,0.21
244.179,0.24
244.394,0.29
244.609,0.32
244.824,0.29
245.039,0.27
245.254,0.26
245.469,0.23
245.684,0.22
245.899,0.23
246.113,0.26
246.328,0.26
246.543,0.26
246.758,0.26
246.973,0.26
247.188,0.24
247.402,0.23
247.617,0.26
247.832,0.25
248.047,0.24
248.262,0.25
248.476,0.27
248.691,0.26
248.906,0.27
249.121,0.28
249.335,0.32
249.55,0.33
249.765,0.35
249.979,0.38
250.194,0.39
250.409,0.41
250.623,0.44
250.838,0.44
251.053,0.48
251.267,0.56
251.482,0.59
251.697,0.67
251.911,0.77
252.126,0.85
252.34,0.91
252.555,0.94
252.769,0.97
252.984,0.99
253.198,01.02
253.413,1.7
253.627,1.15
253.842,1.17
254.056,1.24
254.271,1.26
254.485,1.3
254.7,1.3
254.914,1.34
255.129,1.38
255.343,1.44
255.557,1.47
255.772,1.52
255.986,1.54
256.201,1.54
256.415,1.54
256.629,1.54
256.844,1.53
257.058,1.54
257.272,1.55
257.486,1.55
257.701,1.54
257.915,1.56
258.129,1.53
258.344,1.53
258.558,1.55
258.772,1.55
258.986,1.55
259.2,1.56
259.415,1.57
259.629,1.56
259.843,1.55
260.057,1.55
260.271,1.54
260.485,1.53
260.7,1.53
260.914,1.52
261.128,1.51
261.342,1.5
261.556,1.5
261.77,1.48
261.984,1.47
262.198,1.47
262.412,1.46
262.626,1.45
262.84,1.46
263.054,1.46
263.268,1.44
263.482,1.44
263.696,1.44
263.91,1.42
264.124,1.41
264.338,1.39
264.552,1.38
264.766,1.37
264.98,1.37
265.194,1.37
265.408,1.37
265.622,1.36
265.835,1.36
266.049,1.35
266.263,1.34
266.477,1.34
266.691,1.33
266.905,1.32
267.118,1.32
267.332,1.31
267.546,1.31
267.76,1.31
267.973,1.3
268.187,1.3
268.401,1.3
268.615,1.29
268.828,1.29
269.042,1.28
269.256,1.28
269.469,1.28
269.683,1.27
269.897,1.27
270.11,1.26
270.324,1.26
270.538,1.25
270.751,1.25
270.965,1.25
271.178,1.24
271.392,1.24
271.606,1.24
271.819,1.23
272.033,1.23
272.246,1.22
272.46,1.22
272.673,1.21
272.887,1.21
273.1,1.21
273.314,01.02
273.527,01.02
273.741,1.19
273.954,1.19
274.167,1.18
274.381,1.18
274.594,1.18
274.808,1.17
275.021,1.17
275.234,1.16
275.448,1.16
275.661,1.16
275.874,1.15
276.088,1.15
276.301,1.14
276.514,1.14
276.728,1.14
276.941,1.13
277.154,1.13
277.367,1.12
277.581,1.12
277.794,1.11
278.007,1.1
278.22,1.1
278.434,01.09
278.647,01.09
278.86,01.08
279.073,01.08
279.286,01.07
279.499,01.07
279.713,01.06
279.926,01.06
280.139,01.05
280.352,01.05
280.565,01.04
280.778,01.03
280.991,01.03
281.204,01.02
281.417,01.01
281.63,01.01
281.843,1
282.056,1
282.269,0.99
282.482,0.98
282.695,0.98
282.908,0.97
283.121,0.96
283.334,0.96
283.547,0.95
283.76,0.94
283.973,0.93
284.186,0.92
284.399,0.92
284.612,0.91
284.824,0.91
285.037,0.9
285.25,0.89
285.463,0.88
285.676,0.88
285.889,0.87
286.101,0.86
286.314,0.85
286.527,0.84
286.74,0.84
286.952,0.83
287.165,0.82
287.378,0.81
287.591,0.81
287.803,0.8
288.016,0.79
288.229,0.78
288.441,0.78
288.654,0.77
288.867,0.76
289.079,0.76
289.292,0.75
289.505,0.74
289.717,0.73
289.93,0.73
290.142,0.72
290.355,0.71
290.567,0.71
290.78,0.7
290.992,0.69
291.205,0.68
291.417,0.67
291.63,0.67
291.842,0.66
292.055,0.65
292.267,0.64
292.48,0.64
292.692,0.63
292.905,0.62
293.117,0.61
293.33,0.6
293.542,0.6
293.754,0.59
293.967,0.58
294.179,0.57
294.391,0.56
294.604,0.56
294.816,0.55
295.028,0.54
295.241,0.53
295.453,0.52
295.665,0.52
295.878,0.51
296.09,0.5
296.302,0.49
296.514,0.49
296.727,0.48
296.939,0.47
297.151,0.46
297.363,0.46
297.575,0.45
297.787,0.44
298,0.44
298.212,0.43
298.424,0.42
298.636,0.42
298.848,0.41
299.06,0.4
299.272,0.4
299.484,0.39
299.696,0.39
299.908,0.38
300.121,0.37
300.333,0.37
300.545,0.36
300.757,0.36
300.969,0.35
301.181,0.35
301.393,0.34
301.604,0.34
301.816,0.33
302.028,0.33
302.24,0.32
302.452,0.32
302.664,0.31
302.876,0.31
303.088,0.31
303.3,0.3
303.512,0.3
303.723,0.29
303.935,0.29
304.147,0.29
304.359,0.28
304.571,0.28
304.782,0.27
304.994,0.27
305.206,0.27
305.418,0.26
305.63,0.26
305.841,0.26
306.053,0.25
306.265,0.25
306.476,0.25
306.688,0.24
306.9,0.24
307.111,0.24
307.323,0.23
307.535,0.23
307.746,0.23
307.958,0.22
308.17,0.22
308.381,0.22
308.593,0.21
308.804,0.21
309.016,0.21
309.227,0.2
309.439,0.2
309.65,0.2
309.862,0.19
310.073,0.19
310.285,0.19
310.496,0.19
310.708,0.18
310.919,0.18
311.131,0.18
311.342,0.18
311.554,0.17
311.765,0.17
311.976,0.17
312.188,0.16
312.399,0.16
312.61,0.16
312.822,0.15
313.033,0.15
313.244,0.15
313.456,0.15
313.667,0.14
313.878,0.14
314.09,0.14
314.301,0.14
314.512,0.13
314.723,0.13
314.935,0.13
315.146,0.13
315.357,0.12
315.568,0.12
315.779,0.12
315.991,0.12
316.202,0.11
316.413,0.11
316.624,0.11
316.835,0.11
317.046,0.11
317.257,0.1
317.468,0.1
317.68,0.1
317.891,0.1
318.102,0.1
318.313,0.09
318.524,0.09
318.735,0.09
318.946,0.09
319.157,0.09
319.368,0.08
319.579,0.08
319.79,0.08
320.001,0.08
320.212,0.08
320.423,0.08
320.633,0.07
320.844,0.07
321.055,0.07
321.266,0.07
321.477,0.07
321.688,0.07
321.899,0.07
322.11,0.07
322.32,0.07
322.531,0.06
322.742,0.06
322.953,0.06
323.163,0.06
323.374,0.06
323.585,0.06
323.796,0.06
324.006,0.06
324.217,0.06
324.428,0.05
324.639,0.05
324.849,0.05
325.06,0.05
325.271,0.05
325.481,0.05
325.692,0.05
325.902,0.05
326.113,0.05
326.324,0.05
326.534,0.05
326.745,0.05
326.955,0.05
327.166,0.05
327.377,0.05
327.587,0.04
327.798,0.04
328.008,0.04
328.219,0.04
328.429,0.04
328.64,0.04
328.85,0.04
329.06,0.04
329.271,0.04
329.481,0.04
329.692,0.04
329.902,0.04
330.112,0.04
330.323,0.04
330.533,0.04
330.744,0.04
330.954,0.04
331.164,0.04
331.375,0.04
331.585,0.04
331.795,0.04
332.005,0.04
332.216,0.04
332.426,0.04
332.636,0.04
332.846,0.03
333.057,0.03
333.267,0.03
333.477,0.03
333.687,0.03
333.897,0.03
334.108,0.03
334.318,0.03
334.528,0.04
334.738,0.03
334.948,0.03
335.158,0.03
335.368,0.03
335.578,0.03
335.788,0.03
335.998,0.03
336.209,0.03
336.419,0.03
336.629,0.03
336.839,0.03
337.049,0.03
337.259,0.03
337.469,0.03
337.679,0.03
337.888,0.03
338.098,0.03
338.308,0.03
338.518,0.03
338.728,0.03
338.938,0.03
339.148,0.03
339.358,0.03
339.568,0.03
339.777,0.03
339.987,0.03
340.197,0.03
340.407,0.03
340.617,0.03
340.826,0.03
341.036,0.03
341.246,0.03
341.456,0.03
341.666,0.03
341.875,0.03
342.085,0.03
342.295,0.03
342.504,0.03
342.714,0.03
342.924,0.03
343.133,0.03
343.343,0.03
343.553,0.03
343.762,0.03
343.972,0.03
344.181,0.03
344.391,0.03
344.601,0.03
344.81,0.03
345.02,0.03
345.229,0.03
345.439,0.03
345.648,0.03
345.858,0.03
346.067,0.03
346.277,0.03
346.486,0.03
346.696,0.03
346.905,0.03
347.114,0.03
347.324,0.03
347.533,0.03
347.743,0.03
347.952,0.03
348.161,0.03
348.371,0.03
348.58,0.03
348.789,0.03
348.999,0.03
349.208,0.03
349.417,0.03
349.627,0.03
349.836,0.03
350.045,0.03
350.254,0.03
350.464,0.03
350.673,0.03
350.882,0.03
351.091,0.03
351.3,0.03
351.51,0.03
351.719,0.03
351.928,0.03
352.137,0.03
352.346,0.03
352.555,0.03
352.764,0.03
352.973,0.03
353.183,0.03
353.392,0.03
353.601,0.03
353.81,0.03
354.019,0.03
354.228,0.03
354.437,0.03
354.646,0.03
354.855,0.03
355.064,0.03
355.273,0.03
355.482,0.03
355.691,0.03
355.899,0.03
356.108,0.03
356.317,0.03
356.526,0.03
356.735,0.03
356.944,0.03
357.153,0.03
357.362,0.03
357.57,0.03
357.779,0.03
357.988,0.03
358.197,0.03
358.406,0.03
358.614,0.03
358.823,0.03
359.032,0.03
359.241,0.03
359.449,0.03
359.658,0.03
359.867,0.03
360.075,0.03
360.284,0.03
360.493,0.03
360.701,0.03
360.91,0.03
361.119,0.03
361.327,0.03
361.536,0.03
361.744,0.03
361.953,0.03
362.161,0.03
362.37,0.03
362.579,0.03
362.787,0.03
362.996,0.03
363.204,0.03
363.413,0.03
363.621,0.03
363.83,0.03
364.038,0.03
364.246,0.03
364.455,0.03
364.663,0.03
364.872,0.03
365.08,0.03
365.288,0.03
365.497,0.03
365.705,0.03
365.913,0.03
366.122,0.03
366.33,0.03
366.538,0.03
366.747,0.03
366.955,0.03
367.163,0.03
367.372,0.03
367.58,0.03
367.788,0.03
367.996,0.03
368.204,0.03
368.413,0.03
368.621,0.03
368.829,0.03
369.037,0.03
369.245,0.03
369.453,0.03
369.662,0.03
369.87,0.03
370.078,0.03
370.286,0.03
370.494,0.03
370.702,0.03
370.91,0.03
371.118,0.03
371.326,0.03
371.534,0.03
371.742,0.03
371.95,0.03
372.158,0.03
372.366,0.03
372.574,0.03
372.782,0.03
372.99,0.03
373.198,0.03
373.406,0.03
373.614,0.03
373.821,0.03
374.029,0.03
374.237,0.03
374.445,0.03
374.653,0.03
374.861,0.03
375.068,0.03
375.276,0.03
375.484,0.03
375.692,0.03
375.899,0.03
376.107,0.03
376.315,0.03
376.523,0.03
376.73,0.03
376.938,0.03
377.146,0.03
377.353,0.03
377.561,0.03
377.769,0.03
377.976,0.03
378.184,0.03
378.392,0.03
378.599,0.03
378.807,0.03
379.014,0.03
379.222,0.03
379.429,0.03
379.637,0.03
379.845,0.03
380.052,0.03
380.26,0.03
380.467,0.03
380.674,0.03
380.882,0.03
381.089,0.03
381.297,0.03
381.504,0.03
381.712,0.03
381.919,0.03
382.126,0.03
382.334,0.03
382.541,0.03
382.749,0.03
382.956,0.03
383.163,0.02
383.371,0.02
383.578,0.02
383.785,0.02
383.992,0.02
384.2,0.03
384.407,0.03
384.614,0.03
384.821,0.03
385.029,0.03
385.236,0.03
385.443,0.03
385.65,0.03
385.857,0.03
386.064,0.03
386.272,0.03
386.479,0.03
386.686,0.03
386.893,0.03
387.1,0.02
387.307,0.03
387.514,0.03
387.721,0.03
387.928,0.03
388.135,0.03
388.342,0.03
388.549,0.03
388.756,0.03
388.963,0.03
389.17,0.03
389.377,0.03
389.584,0.03
389.791,0.03
389.998,0.03
390.205,0.03
390.412,0.03
390.619,0.03
390.826,0.03
391.032,0.03
391.239,0.03
391.446,0.02
391.653,0.03
391.86,0.02
392.067,0.03
392.273,0.02
392.48,0.02
392.687,0.02
392.894,0.02
393.1,0.02
393.307,0.02
393.514,0.02
393.72,0.03
393.927,0.03
394.134,0.03
394.34,0.03
394.547,0.03
394.754,0.03
394.96,0.03
395.167,0.03
395.374,0.03
395.58,0.03
395.787,0.03
395.993,0.03
396.2,0.03
396.406,0.03
396.613,0.03
396.819,0.03
397.026,0.03
397.232,0.03
397.439,0.03
397.645,0.03
397.852,0.03
398.058,0.03
398.265,0.03
398.471,0.02
398.677,0.02
398.884,0.02
399.09,0.02
399.297,0.02
399.503,0.03
399.709,0.03
399.916,0.03
400.122,0.03
400.328,0.03
400.534,0.03
400.741,0.03
400.947,0.03
401.153,0.03
401.359,0.03
401.566,0.03
401.772,0.03
401.978,0.03
402.184,0.03
402.39,0.03
402.597,0.03
402.803,0.03
403.009,0.03
403.215,0.03
403.421,0.03
403.627,0.03
403.833,0.03
404.039,0.03
404.245,0.03
404.452,0.03
404.658,0.03
404.864,0.03
405.07,0.03
405.276,0.03
405.482,0.02
405.688,0.02
405.893,0.02
406.099,0.03
406.305,0.03
406.511,0.03
406.717,0.03
406.923,0.03
407.129,0.03
407.335,0.03
407.541,0.03
407.747,0.03
407.952,0.03
408.158,0.03
408.364,0.03
408.57,0.03
408.776,0.02
408.981,0.02
409.187,0.02
409.393,0.03
409.599,0.03
409.804,0.03
410.01,0.03
410.216,0.03
410.421,0.03
410.627,0.03
410.833,0.02
411.038,0.02
411.244,0.02
411.45,0.02
411.655,0.02
411.861,0.03
412.066,0.02
412.272,0.03
412.478,0.02
412.683,0.02
412.889,0.02
413.094,0.02
413.3,0.02
413.505,0.03
413.711,0.03
413.916,0.03
414.122,0.03
414.327,0.03
414.532,0.03
414.738,0.03
414.943,0.03
415.149,0.03
415.354,0.03
415.559,0.03
415.765,0.03
415.97,0.03
416.175,0.03
416.381,0.03
416.586,0.03
416.791,0.02
416.997,0.02
417.202,0.02
417.407,0.02
417.612,0.02
417.818,0.02
418.023,0.02
418.228,0.02
418.433,0.02
418.638,0.02
418.844,0.02
419.049,0.02
419.254,0.02
419.459,0.02
419.664,0.03
419.869,0.03
420.074,0.03
420.279,0.03
420.484,0.03
420.69,0.03
420.895,0.03
421.1,0.03
421.305,0.02
421.51,0.02
421.715,0.02
421.92,0.02
422.125,0.02
422.329,0.03
422.534,0.03
422.739,0.03
422.944,0.03
423.149,0.03
423.354,0.03
423.559,0.03
423.764,0.03
423.969,0.03
424.173,0.03
424.378,0.03
424.583,0.03
424.788,0.03
424.993,0.03
425.197,0.02
425.402,0.02
425.607,0.02
425.812,0.02
426.016,0.03
426.221,0.03
426.426,0.03
426.631,0.03
426.835,0.03
427.04,0.03
427.244,0.02
427.449,0.03
427.654,0.03
427.858,0.03
428.063,0.02
428.268,0.03
428.472,0.03
428.677,0.03
428.881,0.02
429.086,0.02
429.29,0.02
429.495,0.02
429.699,0.02
429.904,0.02
430.108,0.02
430.313,0.02
430.517,0.02
430.722,0.02
430.926,0.02
431.13,0.02
431.335,0.02
431.539,0.02
431.743,0.03
431.948,0.03
432.152,0.03
432.356,0.03
432.561,0.03
432.765,0.03
432.969,0.03
433.174,0.03
433.378,0.03
433.582,0.03
433.786,0.03
433.991,0.03
434.195,0.02
434.399,0.03
434.603,0.03
434.807,0.03
435.012,0.02
435.216,0.03
435.42,0.03
435.624,0.03
435.828,0.03
436.032,0.03
436.236,0.03
436.44,0.02
436.644,0.02
436.848,0.02
437.052,0.02
437.256,0.03
437.46,0.03
437.664,0.03
437.868,0.03
438.072,0.03
438.276,0.03
438.48,0.03
438.684,0.03
438.888,0.03
439.092,0.03
439.296,0.03
439.5,0.03
439.704,0.03
439.908,0.03
440.111,0.03
440.315,0.03
440.519,0.03
440.723,0.03
440.927,0.03
441.13,0.03
441.334,0.03
441.538,0.03
441.742,0.03
441.945,0.03
442.149,0.02
442.353,0.02
442.556,0.02
442.76,0.02
442.964,0.02
443.167,0.02
443.371,0.02
443.575,0.02
443.778,0.02
443.982,0.02
444.185,0.02
444.389,0.03
444.593,0.03
444.796,0.03
445,0.03
445.203,0.03
445.407,0.03
445.61,0.03
445.814,0.03
446.017,0.03
446.221,0.03
446.424,0.03
446.627,0.03
446.831,0.03
447.034,0.02
447.238,0.02
447.441,0.02
447.644,0.02
447.848,0.03
448.051,0.03
448.254,0.03
448.458,0.03
448.661,0.03
448.864,0.03
449.067,0.03
449.271,0.03
449.474,0.03
449.677,0.03
449.88,0.03
450.084,0.03
450.287,0.03
450.49,0.03
450.693,0.03
450.896,0.03
451.099,0.03
451.303,0.03
451.506,0.02
451.709,0.03
451.912,0.03
452.115,0.03
452.318,0.03
452.521,0.03
452.724,0.03
452.927,0.02
453.13,0.03
453.333,0.03
453.536,0.03
453.739,0.03
453.942,0.03
454.145,0.03
454.348,0.03
454.551,0.03
454.754,0.03
454.957,0.02
455.16,0.02
455.362,0.02
455.565,0.02
455.768,0.02
455.971,0.02
456.174,0.02
456.377,0.02
456.579,0.02
456.782,0.02
456.985,0.02
457.188,0.02
457.39,0.02
457.593,0.02
457.796,0.02
457.998,0.02
458.201,0.03
458.404,0.03
458.606,0.03
458.809,0.03
459.012,0.02
459.214,0.02
459.417,0.03
459.62,0.02
459.822,0.02
460.025,0.02
460.227,0.02
460.43,0.02
460.632,0.02
460.835,0.02
461.037,0.02
461.24,0.02
461.442,0.02
461.645,0.02
461.847,0.03
462.05,0.03
462.252,0.03
462.454,0.03
462.657,0.03
462.859,0.03
463.062,0.03
463.264,0.03
463.466,0.02
463.669,0.02
463.871,0.02
464.073,0.02
464.276,0.02
464.478,0.02
464.68,0.02
464.882,0.02
465.085,0.02
465.287,0.02
465.489,0.02
465.691,0.02
465.893,0.02
466.096,0.02
466.298,0.02
466.5,0.02
466.702,0.02
466.904,0.03
467.106,0.03
467.308,0.03
467.51,0.03
467.713,0.03
467.915,0.03
468.117,0.03
468.319,0.02
468.521,0.02
468.723,0.02
468.925,0.02
469.127,0.02
469.329,0.03
469.531,0.03
469.732,0.03
469.934,0.03
470.136,0.03
470.338,0.03
470.54,0.03
470.742,0.03
470.944,0.02
471.146,0.02
471.348,0.03
471.549,0.03
471.751,0.03
471.953,0.03
472.155,0.02
472.356,0.02
472.558,0.02
472.76,0.02
472.962,0.02
473.163,0.03
473.365,0.03
473.567,0.02
473.768,0.02
473.97,0.02
474.172,0.02
474.373,0.02
474.575,0.02
474.777,0.02
474.978,0.02
475.18,0.02
475.381,0.02
475.583,0.02
475.784,0.02
475.986,0.02
476.187,0.03
476.389,0.03
476.59,0.03
476.792,0.03
476.993,0.03
477.195,0.03
477.396,0.03
477.598,0.02
477.799,0.02
478.001,0.03
478.202,0.03
478.403,0.03
478.605,0.03
478.806,0.03
479.007,0.03
479.209,0.03
479.41,0.03
479.611,0.02
479.812,0.02
480.014,0.02
480.215,0.02
480.416,0.02
480.617,0.02
480.819,0.02
481.02,0.03
481.221,0.02
481.422,0.02
481.623,0.02
481.825,0.02
482.026,0.02
482.227,0.02
482.428,0.02
482.629,0.02
482.83,0.02
483.031,0.02
483.232,0.03
483.433,0.03
483.634,0.03
483.835,0.02
484.036,0.02
484.237,0.02
484.438,0.02
484.639,0.02
484.84,0.02
485.041,0.02
485.242,0.02
485.443,0.02
485.644,0.02
485.845,0.02
486.045,0.02
486.246,0.02
486.447,0.02
486.648,0.02
486.849,0.02
487.05,0.02
487.25,0.02
487.451,0.02
487.652,0.02
487.853,0.02
488.053,0.02
488.254,0.02
488.455,0.02
488.655,0.03
488.856,0.03
489.057,0.03
489.257,0.02
489.458,0.02
489.659,0.02
489.859,0.02
490.06,0.02
490.26,0.02
490.461,0.02
490.662,0.03
490.862,0.02
491.063,0.02
491.263,0.02
491.464,0.02
491.664,0.02
491.865,0.02
492.065,0.02
492.266,0.02
492.466,0.02
492.666,0.02
492.867,0.02
493.067,0.02
493.268,0.02
493.468,0.02
493.668,0.02
493.869,0.02
494.069,0.02
494.269,0.02
494.47,0.02
494.67,0.02
494.87,0.02
495.07,0.02
495.271,0.02
495.471,0.02
495.671,0.02
495.871,0.02
496.072,0.02
496.272,0.02
496.472,0.02
496.672,0.02
496.872,0.02
497.072,0.02
497.272,0.02
497.472,0.02
497.673,0.02
497.873,0.02
498.073,0.02
498.273,0.02
498.473,0.02
498.673,0.02
498.873,0.02
499.073,0.02
499.273,0.02
499.473,0.02
499.673,0.02
499.873,0.02
500.073,0.02
500.272,0.02
500.472,0.02
500.672,0.02
500.872,0.02
501.072,0.02
501.272,0.02
501.472,0.02
501.671,0.02
501.871,0.02
502.071,0.02
502.271,0.02
502.471,0.02
502.67,0.02
502.87,0.03
503.07,0.03
503.27,0.03
503.469,0.03
503.669,0.03
503.869,0.02
504.068,0.02
504.268,0.02
504.467,0.02
504.667,0.02
504.867,0.02
505.066,0.02
505.266,0.02
505.465,0.02
505.665,0.03
505.864,0.02
506.064,0.03
506.263,0.03
506.463,0.03
506.662,0.03
506.862,0.03
507.061,0.03
507.261,0.02
507.46,0.02
507.66,0.02
507.859,0.03
508.058,0.03
508.258,0.03
508.457,0.03
508.657,0.03
508.856,0.03
509.055,0.02
509.254,0.03
509.454,0.03
509.653,0.03
509.852,0.03
510.052,0.03
510.251,0.02
510.45,0.02
510.649,0.02
510.848,0.02
511.048,0.03
511.247,0.03
511.446,0.03
511.645,0.03
511.844,0.03
512.043,0.03
512.242,0.03
512.441,0.03
512.64,0.03
512.84,0.03
513.039,0.03
513.238,0.03
513.437,0.02
513.636,0.02
513.835,0.02
514.034,0.03
514.233,0.03
514.432,0.03
514.63,0.03
514.829,0.02
515.028,0.02
515.227,0.02
515.426,0.03
515.625,0.02
515.824,0.02
516.023,0.02
516.221,0.02
516.42,0.02
516.619,0.02
516.818,0.02
517.017,0.02
517.215,0.02
517.414,0.02
517.613,0.02
517.812,0.02
518.01,0.02
518.209,0.02
518.408,0.02
518.606,0.02
518.805,0.02
519.004,0.02
519.202,0.02
519.401,0.02
519.599,0.02
519.798,0.02
519.997,0.02
520.195,0.02
520.394,0.02
520.592,0.02
520.791,0.02
520.989,0.02
521.188,0.02
521.386,0.02
521.585,0.02
521.783,0.02
521.981,0.02
522.18,0.02
522.378,0.02
522.577,0.02
522.775,0.02
522.973,0.02
523.172,0.02
523.37,0.02
523.568,0.02
523.767,0.02
523.965,0.02
524.163,0.02
524.361,0.02
524.56,0.02
524.758,0.02
524.956,0.02
525.154,0.02
525.353,0.02
525.551,0.02
525.749,0.02
525.947,0.02
526.145,0.02
526.343,0.02
526.541,0.02
526.74,0.02
526.938,0.02
527.136,0.02
527.334,0.02
527.532,0.02
527.73,0.02
527.928,0.02
528.126,0.02
528.324,0.02
528.522,0.02
528.72,0.02
528.918,0.02
529.116,0.02
529.314,0.02
529.512,0.02
529.709,0.02
529.907,0.02
530.105,0.02
530.303,0.02
530.501,0.02
530.699,0.02
530.896,0.02
531.094,0.02
531.292,0.02
531.49,0.02
531.688,0.02
531.885,0.02
532.083,0.02
532.281,0.02
532.478,0.02
532.676,0.02
532.874,0.02
533.071,0.02
533.269,0.02
533.467,0.02
533.664,0.02
533.862,0.02
534.06,0.02
534.257,0.02
534.455,0.02
534.652,0.02
534.85,0.02
535.047,0.02
535.245,0.02
535.442,0.02
535.64,0.02
535.837,0.02
536.035,0.02
536.232,0.02
536.43,0.02
536.627,0.02
536.824,0.02
537.022,0.02
537.219,0.02
537.416,0.02
537.614,0.02
537.811,0.02
538.008,0.02
538.206,0.02
538.403,0.02
538.6,0.02
538.798,0.02
538.995,0.02
539.192,0.02
539.389,0.02
539.586,0.02
539.784,0.02
539.981,0.02
540.178,0.02
540.375,0.02
540.572,0.02
540.769,0.02
540.966,0.02
541.164,0.02
541.361,0.02
541.558,0.02
541.755,0.02
541.952,0.02
542.149,0.02
542.346,0.02
542.543,0.02
542.74,0.02
542.937,0.02
543.134,0.02
543.331,0.02
543.528,0.02
543.724,0.02
543.921,0.02
544.118,0.02
544.315,0.02
544.512,0.02
544.709,0.02
544.906,0.02
545.102,0.02
545.299,0.02
545.496,0.02
545.693,0.02
545.889,0.02
546.086,0.02
546.283,0.02
546.48,0.03
546.676,0.03
546.873,0.03
547.07,0.02
547.266,0.02
547.463,0.02
547.66,0.02
547.856,0.02
548.053,0.02
548.249,0.02
548.446,0.02
548.643,0.02
548.839,0.02
549.036,0.02
549.232,0.03
549.429,0.03
549.625,0.03
549.822,0.03
550.018,0.03
550.215,0.02
550.411,0.02
550.607,0.02
550.804,0.02
551,0.02
551.197,0.02
551.393,0.02
551.589,0.02
551.786,0.02
551.982,0.02
552.178,0.02
552.375,0.02
552.571,0.02
552.767,0.02
552.963,0.02
553.16,0.02
553.356,0.02
553.552,0.02
553.748,0.02
553.944,0.02
554.141,0.02
554.337,0.02
554.533,0.02
554.729,0.02
554.925,0.02
555.121,0.02
555.317,0.02
555.513,0.02
555.709,0.02
555.905,0.02
556.101,0.02
556.297,0.02
556.493,0.02
556.689,0.02
556.885,0.02
557.081,0.02
557.277,0.02
557.473,0.02
557.669,0.02
557.865,0.02
558.061,0.02
558.257,0.02
558.453,0.02
558.649,0.02
558.844,0.02
559.04,0.02
559.236,0.02
559.432,0.02
559.628,0.02
559.823,0.02
560.019,0.02
560.215,0.02
560.41,0.02
560.606,0.02
560.802,0.02
560.998,0.02
561.193,0.02
561.389,0.02
561.584,0.02
561.78,0.02
561.976,0.02
562.171,0.02
562.367,0.02
562.562,0.02
562.758,0.02
562.954,0.02
563.149,0.02
563.345,0.02
563.54,0.02
563.735,0.02
563.931,0.02
564.126,0.02
564.322,0.02
564.517,0.02
564.713,0.02
564.908,0.02
565.103,0.02
565.299,0.02
565.494,0.02
565.689,0.02
565.885,0.02
566.08,0.02
566.275,0.02
566.471,0.02
566.666,0.02
566.861,0.02
567.056,0.02
567.252,0.02
567.447,0.02
567.642,0.02
567.837,0.02
568.032,0.02
568.228,0.02
568.423,0.02
568.618,0.02
568.813,0.02
569.008,0.02
569.203,0.02
569.398,0.02
569.593,0.02
569.788,0.02
569.983,0.02
570.178,0.02
570.373,0.02
570.568,0.02
570.763,0.02
570.958,0.02
571.153,0.02
571.348,0.02
571.543,0.02
571.738,0.02
571.933,0.02
572.128,0.02
572.322,0.02
572.517,0.02
572.712,0.02
572.907,0.02
573.102,0.02
573.296,0.02
573.491,0.02
573.686,0.02
573.881,0.02
574.075,0.02
574.27,0.02
574.465,0.02
574.66,0.02
574.854,0.02
575.049,0.02
575.244,0.02
575.438,0.02
575.633,0.02
575.827,0.02
576.022,0.02
576.216,0.02
576.411,0.02
576.606,0.02
576.8,0.02
576.995,0.02
577.189,0.02
577.384,0.02
577.578,0.02
577.773,0.02
577.967,0.02
578.161,0.02
578.356,0.02
578.55,0.02
578.745,0.02
578.939,0.02
579.133,0.02
579.328,0.02
579.522,0.02
579.716,0.02
579.911,0.02
580.105,0.02
580.299,0.02
580.493,0.02
580.688,0.02
580.882,0.02
581.076,0.02
581.27,0.02
581.464,0.02
581.659,0.02
581.853,0.02
582.047,0.02
582.241,0.02
582.435,0.02
582.629,0.02
582.823,0.02
583.017,0.02
583.211,0.02
583.405,0.02
583.599,0.02
583.793,0.02
583.987,0.02
584.181,0.02
584.375,0.02
584.569,0.02
584.763,0.02
584.957,0.02
585.151,0.02
585.345,0.02
585.539,0.02
585.733,0.02
585.927,0.02
586.12,0.02
586.314,0.02
586.508,0.02
586.702,0.02
586.896,0.02
587.089,0.02
587.283,0.02
587.477,0.02
587.671,0.02
587.864,0.02
588.058,0.02
588.252,0.02
588.445,0.02
588.639,0.02
588.833,0.02
589.026,0.02
589.22,0.02
589.413,0.02
589.607,0.02
589.801,0.02
589.994,0.02
590.188,0.02
590.381,0.02
590.575,0.02
590.768,0.02
590.962,0.02
591.155,0.02
591.349,0.02
591.542,0.02
591.735,0.02
591.929,0.02
592.122,0.02
592.316,0.02
592.509,0.02
592.702,0.02
592.896,0.02
593.089,0.02
593.282,0.02
593.476,0.02
593.669,0.02
593.862,0.02
594.055,0.02
594.249,0.02
594.442,0.02
594.635,0.02
594.828,0.02
595.021,0.02
595.214,0.02
595.408,0.02
595.601,0.02
595.794,0.02
595.987,0.02
596.18,0.02
596.373,0.02
596.566,0.02
596.759,0.02
596.952,0.02
597.145,0.02
597.338,0.02
597.531,0.02
597.724,0.02
597.917,0.02
598.11,0.02
598.303,0.02
598.496,0.02
598.689,0.02
598.882,0.02
599.075,0.02
599.267,0.02
599.46,0.02
599.653,0.02
599.846,0.02
600.039,0.02
600.232,0.02
600.424,0.02
600.617,0.02
600.81,0.02
601.003,0.02
601.195,0.02
601.388,0.02
601.581,0.02
601.773,0.02
601.966,0.02
602.159,0.02
602.351,0.02
602.544,0.02
602.736,0.02
602.929,0.02
603.122,0.02
603.314,0.02
603.507,0.02
603.699,0.02
603.892,0.02
604.084,0.02
604.277,0.02
604.469,0.02
604.662,0.02
604.854,0.02
605.046,0.02
605.239,0.02
605.431,0.02
605.624,0.02
605.816,0.02
606.008,0.02
606.201,0.02
606.393,0.02
606.585,0.02
606.777,0.02
606.97,0.02
607.162,0.02
607.354,0.02
607.546,0.02
607.739,0.02
607.931,0.02
608.123,0.02
608.315,0.02
608.507,0.02
608.7,0.02
608.892,0.02
609.084,0.02
609.276,0.02
609.468,0.02
609.66,0.02
609.852,0.02
610.044,0.02
610.236,0.02
610.428,0.02
610.62,0.02
610.812,0.02
611.004,0.02
611.196,0.02
611.388,0.02
611.58,0.02
611.772,0.02
611.964,0.02
612.156,0.02
612.347,0.02
612.539,0.02
612.731,0.02
612.923,0.02
613.115,0.02
613.306,0.02
613.498,0.02
613.69,0.02
613.882,0.02
614.074,0.02
614.265,0.02
614.457,0.02
614.649,0.02
614.84,0.02
615.032,0.02
615.224,0.02
615.415,0.02
615.607,0.02
615.798,0.02
615.99,0.02
616.182,0.02
616.373,0.02
616.565,0.02
616.756,0.02
616.948,0.02
617.139,0.02
617.331,0.02
617.522,0.02
617.714,0.02
617.905,0.02
618.096,0.02
618.288,0.02
618.479,0.02
618.671,0.02
618.862,0.02
619.053,0.02
619.245,0.02
619.436,0.02
619.627,0.02
619.819,0.02
620.01,0.02
620.201,0.02
620.392,0.02
620.584,0.02
620.775,0.02
620.966,0.02
621.157,0.02
621.348,0.02
621.54,0.02
621.731,0.02
621.922,0.02
622.113,0.02
622.304,0.02
622.495,0.02
622.686,0.02
622.877,0.02
623.068,0.02
623.259,0.02
623.45,0.02
623.641,0.02
623.832,0.02
624.023,0.02
624.214,0.02
624.405,0.02
624.596,0.02
624.787,0.02
624.978,0.02
625.169,0.02
625.36,0.02
625.55,0.02
625.741,0.02
625.932,0.02
626.123,0.02
626.314,0.02
626.504,0.02
626.695,0.02
626.886,0.02
627.077,0.02
627.267,0.02
627.458,0.02
627.649,0.02
627.839,0.02
628.03,0.02
628.221,0.02
628.411,0.02
628.602,0.02
628.793,0.02
628.983,0.02
629.174,0.02
629.364,0.02
629.555,0.02
629.745,0.02
629.936,0.01
630.126,0.01
630.317,0.01
630.507,0.02
630.698,0.02
630.888,0.02
631.079,0.02
631.269,0.02
631.459,0.02
631.65,0.02
631.84,0.02
632.03,0.02
632.221,0.02
632.411,0.02
632.601,0.02
632.792,0.02
632.982,0.02
633.172,0.01
633.362,0.02
633.553,0.02
633.743,0.02
633.933,0.02
634.123,0.02
634.313,0.02
634.503,0.02
634.694,0.01
634.884,0.01
635.074,0.01
635.264,0.01
635.454,0.01
635.644,0.02
635.834,0.02
636.024,0.02
636.214,0.02
636.404,0.02
636.594,0.01
636.784,0.01
636.974,0.01
637.164,0.01
637.354,0.02
637.544,0.02
637.734,0.02
637.924,0.02
638.113,0.02
638.303,0.02
638.493,0.02
638.683,0.02
638.873,0.02
639.063,0.02
639.252,0.02
639.442,0.02
639.632,0.02
639.822,0.02
640.011,0.01
640.201,0.01
640.391,0.02
640.58,0.02
640.77,0.02
640.96,0.02
641.149,0.02
641.339,0.02
641.528,0.02
641.718,0.02
641.908,0.02
642.097,0.02
642.287,0.02
642.476,0.02
642.666,0.02
642.855,0.02
643.045,0.02
643.234,0.02
643.424,0.02
643.613,0.02
643.802,0.02
643.992,0.02
644.181,0.02
644.371,0.02
644.56,0.02
644.749,0.02
644.939,0.02
645.128,0.02
645.317,0.02
645.507,0.02
645.696,0.02
645.885,0.02
646.074,0.02
646.264,0.02
646.453,0.02
646.642,0.02
646.831,0.02
647.02,0.02
647.209,0.02
647.399,0.02
647.588,0.02
647.777,0.02
647.966,0.02
648.155,0.02
648.344,0.02
648.533,0.02
648.722,0.02
648.911,0.02
649.1,0.02
649.289,0.02
649.478,0.02
649.667,0.02
649.856,0.02
650.045,0.02
650.234,0.02
650.423,0.02
650.611,0.02
650.8,0.02
650.989,0.02
651.178,0.02
651.367,0.02
651.556,0.02
651.744,0.02
651.933,0.02
652.122,0.02
652.311,0.02
652.499,0.02
652.688,0.02
652.877,0.02
653.065,0.02
653.254,0.02
653.443,0.02
653.631,0.02
653.82,0.02
654.009,0.02
654.197,0.02
654.386,0.02
654.574,0.02
654.763,0.02
654.951,0.02
655.14,0.02
655.328,0.02
655.517,0.02
655.705,0.02
655.894,0.01
656.082,0.01
656.271,0.01
656.459,0.01
656.647,0.01
656.836,0.01
657.024,0.02
657.213,0.02
657.401,0.02
657.589,0.02
657.778,0.02
657.966,0.02
658.154,0.02
658.342,0.02
658.531,0.02
658.719,0.02
658.907,0.02
659.095,0.02
659.283,0.02
659.472,0.02
659.66,0.02
659.848,0.02
660.036,0.02
660.224,0.02
660.412,0.02
660.6,0.02
660.788,0.02
660.976,0.02
661.164,0.02
661.352,0.02
661.54,0.02
661.728,0.02
661.916,0.02
662.104,0.02
662.292,0.02
662.48,0.02
662.668,0.02
662.856,0.02
663.044,0.02
663.232,0.02
663.42,0.02
663.607,0.02
663.795,0.02
663.983,0.02
664.171,0.02
664.359,0.02
664.546,0.02
664.734,0.02
664.922,0.02
665.109,0.02
665.297,0.02
665.485,0.02
665.672,0.02
665.86,0.02
666.048,0.02
666.235,0.02
666.423,0.02
666.611,0.02
666.798,0.02
666.986,0.02
667.173,0.02
667.361,0.02
667.548,0.02
667.736,0.02
667.923,0.01
668.111,0.01
668.298,0.01
668.486,0.01
668.673,0.02
668.86,0.02
669.048,0.01
669.235,0.02
669.423,0.02
669.61,0.02
669.797,0.02
669.985,0.02
670.172,0.02
670.359,0.02
670.546,0.01
670.734,0.01
670.921,0.02
671.108,0.01
671.295,0.01
671.482,0.02
671.67,0.01
671.857,0.01
672.044,0.01
672.231,0.01
672.418,0.01
672.605,0.01
672.792,0.01
672.979,0.02
673.167,0.02
673.354,0.02
673.541,0.02
673.728,0.02
673.915,0.02
674.102,0.02
674.289,0.02
674.475,0.01
674.662,0.01
674.849,0.01
675.036,0.01
675.223,0.01
675.41,0.01
675.597,0.01
675.784,0.01
675.97,0.01
676.157,0.01
676.344,0.01
676.531,0.01
676.718,0.01
676.904,0.01
677.091,0.01
677.278,0.01
677.464,0.01
677.651,0.01
677.838,0.01
678.024,0.01
678.211,0.01
678.398,0.01
678.584,0.01
678.771,0.01
678.958,0.01
679.144,0.01
679.331,0.01
679.517,0.01
679.704,0.01
679.89,0.01
680.077,0.01
680.263,0.01
680.45,0.01
680.636,0.01
680.822,0.01
681.009,0.01
681.195,0.01
681.382,0.01
681.568,0.01
681.754,0.01
681.941,0.01
682.127,0.01
682.313,0.01
682.5,0.01
682.686,0.01
682.872,0.01
683.058,0.01
683.245,0.01
683.431,0.01
683.617,0.01
683.803,0.01
683.989,0.01
684.175,0.01
684.362,0.01
684.548,0.01
684.734,0.01
684.92,0.01
685.106,0.01
685.292,0.01
685.478,0.01
685.664,0.01
685.85,0.01
686.036,0.01
686.222,0.01
686.408,0.01
686.594,0.01
686.78,0.01
686.966,0.01
687.152,0.01
687.338,0.01
687.523,0.01
687.709,0.01
687.895,0.01
688.081,0.01
688.267,0.01
688.453,0.01
688.638,0.01
688.824,0.01
689.01,0.01
689.196,0.01
689.381,0.01
689.567,0.01
689.753,0.01
689.938,0.01
690.124,0.01
690.31,0.01
690.495,0.01
690.681,0.01
690.866,0.01
691.052,0.01
691.238,0.01
691.423,0.01
691.609,0.01
691.794,0.01
691.98,0.01
692.165,0.01
692.351,0.01
692.536,0.01
692.721,0.01
692.907,0.01
693.092,0.01
693.278,0.01
693.463,0.01
693.648,0.01
693.834,0.01
694.019,0.01
694.204,0.01
694.39,0.01
694.575,0.01
694.76,0.01
694.945,0.01
695.131,0.01
695.316,0.01
695.501,0.01
695.686,0.01
695.871,0.01
696.057,0.01
696.242,0.01
696.427,0.01
696.612,0.01
696.797,0.01
696.982,0.01
697.167,0.01
697.352,0.01
697.537,0.01
697.722,0.01
697.907,0.01
698.092,0.01
698.277,0.01
698.462,0.01
698.647,0.01
698.832,0.01
699.017,0.01
699.202,0.01
699.387,0.01
699.572,0.01
699.756,0.01
699.941,0.01
700.126,0.01
700.311,0.01
700.496,0.01
700.68,0.01
700.865,0.01
701.05,0.01
701.235,0.01
701.419,0.01
701.604,0.01
701.789,0.01
701.973,0.01
702.158,0.01
702.343,0.01
702.527,0.01
702.712,0.01
702.896,0.01
703.081,0.01
703.265,0.01
703.45,0.01
703.634,0.01
703.819,0.01
704.003,0.01
704.188,0.01
704.372,0.01
704.557,0.01
704.741,0.01
704.926,0.01
705.11,0.01
705.294,0.01
705.479,0.01
705.663,0.01
705.847,0.01
706.032,0.01
706.216,0.01
706.4,0.01
706.585,0.01
706.769,0.01
706.953,0.01
707.137,0.01
707.321,0.01
707.506,0.01
707.69,0.01
707.874,0.01
708.058,0.01
708.242,0.01
708.426,0.01
708.61,0.01
708.794,0.01
708.979,0.01
709.163,0.01
709.347,0.01
709.531,0.01
709.715,0.01
709.899,0.01
710.083,0.01
710.267,0.01
710.45,0.01
710.634,0.01
710.818,0.01
711.002,0.01
711.186,0.01
711.37,0.01
711.554,0.01
711.738,0.01
711.921,0.01
712.105,0.01
712.289,0.01
712.473,0.01
712.656,0.01
712.84,0.01
713.024,0.01
713.208,0.01
713.391,0.01
713.575,0.01
713.759,0.01
713.942,0.01
714.126,0.01
714.309,0.01
714.493,0.01
714.677,0.01
714.86,0.01
715.044,0.01
715.227,0.01
715.411,0.01
715.594,0.01
715.778,0.01
715.961,0.01
716.145,0.01
716.328,0.01
716.511,0.01
716.695,0.01
716.878,0.01
717.062,0.01
717.245,0.01
717.428,0.01
717.612,0.01
717.795,0.01
717.978,0.01
718.161,0.01
718.345,0.01
718.528,0.01
718.711,0.01
718.894,0.01
719.078,0.01
719.261,0.01
719.444,0.01
719.627,0.01
719.81,0.01
719.993,0.01
720.176,0.01
720.359,0.01
720.543,0.01
720.726,0.01
720.909,0.01
721.092,0.01
721.275,0.01
721.458,0.01
721.641,0.01
721.824,0.01
722.006,0.01
722.189,0.01
722.372,0.01
722.555,0.01
722.738,0.01
722.921,0.01
723.104,0.01
723.287,0.01
723.469,0.01
723.652,0.01
723.835,0.01
724.018,0.01
724.201,0.01
724.383,0.01
724.566,0.01
724.749,0.01
724.931,0.01
725.114,0.01
725.297,0.01
725.479,0.01
725.662,0.01
725.845,0.01
726.027,0.01
726.21,0.01
726.392,0.01
726.575,0.01
726.757,0.01
726.94,0.01
727.122,0.01
727.305,0.01
727.487,0.01
727.67,0.01
727.852,0.01
728.035,0.01
728.217,0.01
728.399,0.01
728.582,0.01
728.764,0.01
728.946,0.01
729.129,0.01
729.311,0.01
729.493,0.01
729.676,0.01
729.858,0.01
730.04,0.01
730.222,0.01
730.404,0.01
730.587,0.01
730.769,0.01
730.951,0.01
731.133,0.01
731.315,0.01
731.497,0.01
731.679,0.01
731.862,0.01
732.044,0.01
732.226,0.01
732.408,0.01
732.59,0.01
732.772,0.01
732.954,0.01
733.136,0.01
733.318,0.01
733.5,0.01
733.681,0.01
733.863,0.01
734.045,0.01
734.227,0.01
734.409,0.01
734.591,0.01
734.773,0.01
734.954,0.01
735.136,0.01
735.318,0.01
735.5,0.01
735.682,0.01
735.863,0.01
736.045,0.01
736.227,0.01
736.408,0.01
736.59,0.01
736.772,0.01
736.953,0.01
737.135,0.01
737.317,0.01
737.498,0.01
737.68,0.01
737.861,0.01
738.043,0.01
738.224,0.01
738.406,0.01
738.587,0.01
738.769,0.01
738.95,0.01
739.132,0.01
739.313,0.01
739.494,0.01
739.676,0.01
739.857,0.01
740.039,0.01
740.22,0.01
740.401,0.01
740.583,0.01
740.764,0.01
740.945,0.01
741.126,0.01
741.308,0.01
741.489,0.01
741.67,0.01
741.851,0.01
742.033,0.01
742.214,0.01
742.395,0.01
742.576,0.01
742.757,0.01
742.938,0.01
743.119,0.01
743.3,0.01
743.481,0.01
743.662,0.01
743.843,0.01
744.024,0.01
744.205,0.01
744.386,0.01
744.567,0.01
744.748,0.01
744.929,0.01
745.11,0.01
745.291,0.01
745.472,0.01
745.653,0.01
745.834,0.01
746.014,0.01
746.195,0.01
746.376,0.01
746.557,0.01
746.738,0.01
746.918,0.01
747.099,0.01
747.28,0.01
747.461,0.01
747.641,0.01
747.822,0.01
748.003,0.01
748.183,0.01
748.364,0.01
748.544,0.01
748.725,0.01
748.906,0.01
749.086,0.01
749.267,0.01
749.447,0.01
749.628,0.01
749.808,0.01
749.989,0.01
750.169,0.01
750.35,0.01
750.53,0.01
750.71,0.01
750.891,0.01
751.071,0.01
751.251,0.01
751.432,0.01
751.612,0.01
751.792,0.01
751.973,0.01
752.153,0.01
752.333,0.01
752.514,0.01
752.694,0.01
752.874,0.01
753.054,0.01
753.234,0.01
753.415,0.01
753.595,0.01
753.775,0.01
753.955,0.01
754.135,0.01
754.315,0.01
754.495,0.01
754.675,0.01
754.855,0.01
755.035,0.01
755.215,0.01
755.395,0.01
755.575,0.01
755.755,0.01
755.935,0.01
756.115,0.01
756.295,0.01
756.475,0.01
756.655,0.01
756.835,0.01
757.014,0.01
757.194,0.01
757.374,0.01
757.554,0.01
757.734,0.01
757.913,0.01
758.093,0.01
758.273,0.01
758.453,0.01
758.632,0.01
758.812,0.01
758.992,0.01
759.171,0.01
759.351,0.01
759.531,0.01
759.71,0.01
759.89,0.01
760.069,0.01
760.249,0.01
760.428,0.01
760.608,0.01
760.787,0.01
760.967,0.01
761.146,0.01
761.326,0.01
761.505,0.01
761.685,0.01
761.864,0.01
762.043,0.01
762.223,0.01
762.402,0.01
762.581,0.01
762.761,0.01
762.94,0.01
763.119,0.01
763.299,0.01
763.478,0.01
763.657,0.01
763.836,0.01
764.016,0.01
764.195,0.01
764.374,0.01
764.553,0.01
764.732,0.01
764.911,0.01
765.09,0.01
765.27,0.01
765.449,0.01
765.628,0.01
765.807,0.01
765.986,0.01
766.165,0.01
766.344,0.01
766.523,0.01
766.702,0.01
766.881,0.01
767.06,0.01
767.238,0.01
767.417,0.01
767.596,0.01
767.775,0.01
767.954,0.01
768.133,0.01
768.312,0.01
768.49,0.01
768.669,0.01
768.848,0
769.027,0
769.205,0
769.384,0
769.563,0
769.742,0.01
769.92,0.01
770.099,0.01
770.277,0.01
770.456,0.01
770.635,0.01
770.813,0.01
770.992,0.01
771.17,0.01
771.349,0.01
771.527,0.01
771.706,0.01
771.884,0.01
772.063,0.01
772.241,0.01
772.42,0.01
772.598,0.01
772.777,0.01
772.955,0.01
773.133,0
773.312,0
773.49,0
773.668,0.01
773.847,0.01
774.025,0.01
774.203,0.01
774.382,0.01
774.56,0.01
774.738,0.01
774.916,0
775.094,0
775.273,0
775.451,0
775.629,0
775.807,0
775.985,0
776.163,0
776.341,0
776.519,0
776.697,0
776.875,0
777.053,0
777.231,0
777.409,0.01
777.587,0.01
777.765,0.01
777.943,0.01
778.121,0.01
778.299,0
778.477,0
778.655,0
778.833,0
779.01,0
779.188,0
779.366,0
779.544,0
779.722,0
779.899,0
780.077,0
780.255,0
780.432,0
780.61,0
780.788,0.01
780.965,0
781.143,0.01
781.321,0.01
781.498,0
781.676,0
781.853,0
782.031,0
782.208,0
782.386,0
782.563,0
782.741,0
782.918,0
783.096,0
783.273,0
783.451,0.01
783.628,0.01
783.805,0.01
783.983,0
784.16,0
784.338,0
784.515,0
784.692,0
784.869,0
785.047,0.01
785.224,0.01
785.401,0.01
785.578,0.01
785.756,0.01
785.933,0.01
786.11,0.01
786.287,0.01
786.464,0
786.641,0
786.818,0
786.996,0
787.173,0.01
787.35,0
787.527,0.01
787.704,0.01
787.881,0.01
788.058,0.01
788.235,0.01
788.412,0.01
788.589,0.01
788.765,0.01
788.942,0.01
789.119,0
789.296,0
789.473,0
789.65,0.01
789.827,0
790.003,0.01
790.18,0.01
790.357,0.01
790.534,0.01
790.71,0.01
790.887,0.01
791.064,0.01
791.241,0.01
791.417,0.01
791.594,0.01
791.77,0.01
791.947,0.01
792.124,0.01
792.3,0.01
792.477,0.01
792.653,0.01
792.83,0.01
793.006,0.01
793.183,0.01
793.359,0.01
793.536,0.01
793.712,0.01
793.889,0.01
794.065,0.01
794.242,0.01
794.418,0.01
794.594,0.01
794.771,0.01
794.947,0.01
795.123,0.01
795.3,0.01
795.476,0.01
795.652,0.01
795.828,0.01
796.005,0.01
796.181,0.01
796.357,0.01
796.533,0.01
796.709,0.01
796.886,0.01
797.062,0.01
797.238,0.01
797.414,0.01
797.59,0.01
797.766,0.01
797.942,0.01
798.118,0.01
798.294,0.01
798.47,0.01
798.646,0.01
798.822,0.01
798.998,0.01
799.174,0.01
799.35,0.01
799.526,0.01
799.702,0.01
799.878,0.01
800.053,0.01
800.229,0.01
800.405,0.01
800.581,0.01
800.757,0.01
800.932,0.01
801.108,0.01
801.284,0.01
801.46,0.01
801.635,0.01
801.811,0.01
801.987,0.01
802.162,0.01
802.338,0.01
802.514,0.01
802.689,0.01
802.865,0.01
803.04,0.01
803.216,0.01
803.391,0.01
803.567,0.01
803.742,0.01
803.918,0.01
804.093,0.01
804.269,0.01
804.444,0.01
804.62,0.01
804.795,0.01
804.97,0.01
805.146,0.01
805.321,0.01
805.496,0.01
805.672,0.01
805.847,0.01
806.022,0.01
806.198,0.01
806.373,0.01
806.548,0.01
806.723,0.01
806.899,0.01
807.074,0.01
807.249,0.01
807.424,0.01
807.599,0.01
807.774,0.01
807.949,0.01
808.124,0.01
808.299,0.01
808.475,0.01
808.65,0.01
808.825,0.01
809,0.01
809.175,0.01
809.349,0.01
809.524,0.01
809.699,0.01
809.874,0.01
810.049,0.01
810.224,0.01
810.399,0.01
810.574,0.01
810.749,0.01
810.923,0.01
811.098,0.01
811.273,0.01
811.448,0.01
811.622,0.01
811.797,0.01
811.972,0.01
812.147,0.01
812.321,0.01
812.496,0.01
812.671,0.01
812.845,0.01
813.02,0.01
813.194,0.01
813.369,0.01
813.543,0.01
813.718,0.01
813.892,0.01
814.067,0.01
814.241,0.01
814.416,0.01
814.59,0.01
814.765,0.01
814.939,0.01
815.114,0.01
815.288,0.01
815.462,0.01
815.637,0.01
815.811,0.01
815.985,0.01
816.16,0.01
816.334,0.01
816.508,0.01
816.683,0.01
816.857,0.01
817.031,0.01
817.205,0.01
817.379,0.01
817.554,0.01
817.728,0.01
817.902,0.01
818.076,0.01
818.25,0.01
818.424,0.01
818.598,0.01
818.772,0.01
818.946,0.01
819.12,0.01
819.294,0.01
819.468,0.01
819.642,0.01
819.816,0.01
819.99,0.01
820.164,0.01
820.338,0.01
820.512,0.01
820.686,0.01
820.859,0.01
821.033,0.01
821.207,0.01
821.381,0.01
821.555,0.01
821.728,0.01
821.902,0.01
822.076,0.01
822.25,0.01
822.423,0.01
822.597,0.01
822.771,0.01
822.944,0.01
823.118,0.01
823.291,0.01
823.465,0.01
823.639,0.01
823.812,0.01
823.986,0.01
824.159,0.01
824.333,0.01
824.506,0.01
824.68,0.01
824.853,0.01
825.027,0.01
825.2,0.01
825.373,0.01
825.547,0.01
825.72,0.01
825.893,0.01
826.067,0.01
826.24,0.01
826.413,0.01
826.587,0.01
826.76,0.01
826.933,0.01
827.106,0.01
827.28,0.01
827.453,0.01
827.626,0.01
827.799,0.01
827.972,0.01
828.145,0.01
828.319,0.01
828.492,0.01
828.665,0.01
828.838,0.01
829.011,0.01
829.184,0.01
829.357,0.01
829.53,0.01
829.703,0.01
829.876,0.01
830.049,0.01
830.222,0.01
830.395,0.01
830.567,0.01
830.74,0.01
830.913,0.01
831.086,0.01
831.259,0.01
831.432,0.01
831.604,0.01
831.777,0.01
831.95,0.01
832.123,0.01
832.295,0.01
832.468,0.01
832.641,0.01
832.813,0.01
832.986,0.01
833.159,0.01
833.331,0.01
833.504,0.01
833.677,0.01
833.849,0.01
834.022,0.01
834.194,0.01
834.367,0.01
834.539,0.01
834.712,0.01
834.884,0.01
835.057,0.01
835.229,0.01
835.401,0.01
835.574,0.01
835.746,0.01
835.919,0.01
836.091,0.01
836.263,0.01
836.435,0.01
836.608,0.01
836.78,0.01
836.952,0.01
837.125,0.01
837.297,0.01
837.469,0.01
837.641,0.01
837.813,0.01
837.985,0.01
838.158,0.01
838.33,0.01
838.502,0.01
838.674,0.01
838.846,0.01
839.018,0.01
839.19,0.01
839.362,0.01
839.534,0.01
839.706,0.01
839.878,0.01
840.05,0.01
840.222,0.01
840.394,0.01
840.566,0.01
840.738,0.01
840.909,0.01
841.081,0.01
841.253,0.01
841.425,0.01
841.597,0.01
841.768,0.01
841.94,0.01
842.112,0.01
842.284,0.01
842.455,0.01
842.627,0.01
842.799,0.01
842.97,0.01
843.142,0.01
843.314,0.01
843.485,0.01
843.657,0.01
843.828,0.01
844,0.01
844.171,0.01
844.343,0.01
844.514,0.01
844.686,0.01
844.857,0.01
845.029,0.01
845.2,0.01
845.372,0.01
845.543,0.01
845.714,0.01
845.886,0.01
846.057,0.01
846.228,0.01
846.4,0.01
846.571,0.01
846.742,0.01
846.914,0.01
847.085,0.01
847.256,0.01
847.427,0.01
847.598,0.01
847.77,0.01
847.941,0.01
848.112,0.01
848.283,0.01
848.454,0.01
848.625,0.01
848.796,0.01
848.967,0.01
849.138,0.01
849.309,0.01
849.48,0.01
849.651,0.01
849.822,0.01
849.993,0.01
850.164,0.01
850.335,0.01
850.506,0.01
850.677,0.01
850.848,0.01
851.018,0.01
851.189,0.01
851.36,0.01
851.531,0.01
851.702,0.01
851.872,0.01
852.043,0.01
852.214,0.01
852.385,0.01
852.555,0.01
852.726,0.01
852.897,0.01
853.067,0.01
853.238,0.01
853.408,0.01
853.579,0.01
853.75,0.01
853.92,0.01
854.091,0.01
854.261,0.01
854.432,0.01
854.602,0.01
854.773,0.01
854.943,0.01
855.113,0.01
855.284,0.01
855.454,0.01
855.625,0.01
855.795,0.01
855.965,0.01
856.136,0.01
856.306,0.01
856.476,0.01
856.646,0.01
856.817,0.01
856.987,0.01
857.157,0.01
857.327,0.01
857.497,0.01
857.668,0.01
857.838,0.01
858.008,0.01
858.178,0.01
858.348,0.01
858.518,0.01
858.688,0.01
858.858,0.01
859.028,0.01
859.198,0.01
859.368,0.01
859.538,0.01
859.708,0.01
859.878,0.01
860.048,0.01
860.218,0.02
860.388,0.01
860.558,0.02
860.728,0.02
860.897,0.02
861.067,0.02
861.237,0.02
861.407,0.02
861.577,0.02
861.746,0.02
861.916,0.02
862.086,0.02
862.255,0.02
862.425,0.02
862.595,0.02
862.764,0.02
862.934,0.02
863.104,0.02
863.273,0.02
863.443,0.02
863.612,0.02
863.782,0.02
863.951,0.02
864.121,0.02
864.29,0.02
864.46,0.02
864.629,0.02
864.799,0.02
864.968,0.02
865.137,0.02
865.307,0.02
865.476,0.02
865.646,0.02
865.815,0.02
865.984,0.02
866.153,0.02
866.323,0.02
866.492,0.02
866.661,0.02
866.83,0.02
867,0.02
867.169,0.02
867.338,0.02
867.507,0.02
867.676,0.02
867.845,0.02
868.014,0.02
868.184,0.02
868.353,0.02
868.522,0.02
868.691,0.02
868.86,0.02
869.029,0.02
869.198,0.02
869.367,0.03
869.536,0.03
869.704,0.03
869.873,0.03
870.042,0.03
870.211,0.03
870.38,0.03
870.549,0.03
870.718,0.03
870.886,0.03
871.055,0.03
871.224,0.03
871.393,0.03
871.561,0.03
871.73,0.03
871.899,0.03
872.067,0.03
872.236,0.03
872.405,0.03
872.573,0.03
872.742,0.03
872.911,0.03
873.079,0.03
873.248,0.03
873.416,0.03
873.585,0.03
873.753,0.03
873.922,0.03
874.09,0.03
874.259,0.03
874.427,0.03
874.595,0.03
874.764,0.03
874.932,0.03
875.101,0.03
875.269,0.03
875.437,0.03
875.605,0.03
875.774,0.03
875.942,0.03
876.11,0.03
876.279,0.03
876.447,0.03
876.615,0.03
876.783,0.03
876.951,0.03
877.119,0.03
877.288,0.03
877.456,0.03
877.624,0.03
877.792,0.03
877.96,0.03
878.128,0.03
878.296,0.03
878.464,0.03
878.632,0.03
878.8,0.03
878.968,0.03
879.136,0.03
879.304,0.03
879.472,0.03
879.639,0.03
879.807,0.03
879.975,0.03
880.143,0.03
880.311,0.03
880.479,0.03
880.646,0.03
880.814,0.03
880.982,0.03
881.15,0.03
881.317,0.03
881.485,0.03
881.653,0.03
881.82,0.03
881.988,0.03
882.156,0.03
882.323,0.03
882.491,0.03
882.658,0.03
882.826,0.03
882.993,0.03
883.161,0.03
883.328,0.03
883.496,0.03
883.663,0.03
883.831,0.03
883.998,0.03
884.165,0.03
884.333,0.03
884.5,0.03
884.668,0.03
884.835,0.03
885.002,0.03
885.17,0.03
885.337,0.03
885.504,0.03
885.671,0.03
885.839,0.03
886.006,0.03
886.173,0.03
886.34,0.03
886.507,0.03
886.674,0.03
886.841,0.03
887.009,0.03
887.176,0.03
887.343,0.03
887.51,0.03
887.677,0.03
887.844,0.03
888.011,0.03
888.178,0.03
888.345,0.03