Absorbance:209,
177.674,-0.77
177.893,-0.51
178.111,-0.52
178.329,-0.5
178.547,-0.39
178.766,-0.13
178.984,0
179.202,0.63
179.42,0.53
179.638,0
179.856,0
180.075,0.36
180.293,0
180.511,0
180.729,0
180.947,0.4
181.165,0.09
181.383,0.16
181.601,0.1
181.819,0.14
182.037,0.17
182.255,0.17
182.473,0.11
182.691,0.1
182.909,0.07
183.127,0.06
183.345,0.04
183.563,0.1
183.781,0.15
183.999,0.15
184.217,0.14
184.435,0.17
184.653,0.16
184.871,0.14
185.089,0.12
185.307,0.15
185.525,0.17
185.742,0.15
185.96,0.14
186.178,0.15
186.396,0.14
186.614,0.1
186.832,0.13
187.049,0.14
187.267,0.15
187.485,0.18
187.703,0.2
187.921,0.17
188.138,0.18
188.356,0.19
188.574,0.19
188.792,0.2
189.009,0.21
189.227,0.2
189.445,0.19
189.662,0.16
189.88,0.13
190.098,0.13
190.315,0.12
190.533,0.14
190.751,0.17
190.968,0.17
191.186,0.12
191.403,0.16
191.621,0.12
191.839,0.12
192.056,0.12
192.274,0.18
192.491,0.15
192.709,0.18
192.926,0.14
193.144,0.15
193.361,0.14
193.579,0.13
193.796,0.16
194.014,0.12
194.231,0.13
194.449,0.13
194.666,0.19
194.883,0.13
195.101,0.16
195.318,0.13
195.536,0.12
195.753,0.09
195.97,0.15
196.188,0.16
196.405,0.18
196.623,0.15
196.84,0.17
197.057,0.07
197.275,0.09
197.492,0.1
197.709,0.18
197.926,0.13
198.144,0.12
198.361,0.12
198.578,0.12
198.795,0.09
199.013,0.1
199.23,0.14
199.447,0.16
199.664,0.15
199.881,0.13
200.099,0.13
200.316,0.11
200.533,0.11
200.75,0.1
200.967,0.09
201.184,0.06
201.401,0.09
201.619,0.08
201.836,0.13
202.053,0.12
202.27,0.21
202.487,0.25
202.704,0.28
202.921,0.29
203.138,0.33
203.355,0.28
203.572,0.24
203.789,0.26
204.006,0.21
204.223,0.23
204.44,0.28
204.657,0.25
204.874,0.24
205.091,0.25
205.308,0.21
205.525,0.2
205.741,0.2
205.958,0.2
206.175,0.22
206.392,0.22
206.609,0.2
206.826,0.2
207.043,0.16
207.259,0.15
207.476,0.17
207.693,0.19
207.91,0.2
208.127,0.23
208.343,0.22
208.56,0.21
208.777,0.2
208.994,0.19
209.21,0.21
209.427,0.2
209.644,0.18
209.861,0.17
210.077,0.14
210.294,0.15
210.511,0.16
210.727,0.18
210.944,0.18
211.161,0.21
211.377,0.17
211.594,0.17
211.81,0.19
212.027,0.21
212.244,0.22
212.46,0.24
212.677,0.22
212.893,0.19
213.11,0.21
213.326,0.21
213.543,0.22
213.759,0.22
213.976,0.24
214.192,0.23
214.409,0.25
214.625,0.25
214.842,0.26
215.058,0.24
215.275,0.21
215.491,0.19
215.707,0.17
215.924,0.14
216.14,0.16
216.357,0.15
216.573,0.16
216.789,0.16
217.006,0.18
217.222,0.15
217.438,0.16
217.655,0.14
217.871,0.13
218.087,0.16
218.304,0.2
218.52,0.17
218.736,0.2
218.952,0.2
219.169,0.18
219.385,0.19
219.601,0.21
219.817,0.2
220.033,0.22
220.25,0.19
220.466,0.18
220.682,0.19
220.898,0.17
221.114,0.15
221.33,0.15
221.546,0.16
221.763,0.14
221.979,0.16
222.195,0.17
222.411,0.19
222.627,0.17
222.843,0.23
223.059,0.25
223.275,0.26
223.491,0.28
223.707,0.28
223.923,0.23
224.139,0.23
224.355,0.22
224.571,0.21
224.787,0.19
225.003,0.19
225.219,0.16
225.435,0.15
225.651,0.13
225.867,0.21
226.083,0.21
226.298,0.2
226.514,0.2
226.73,0.22
226.946,0.17
227.162,0.18
227.378,0.21
227.594,0.25
227.809,0.23
228.025,0.24
228.241,0.24
228.457,0.23
228.672,0.21
228.888,0.22
229.104,0.22
229.32,0.23
229.535,0.26
229.751,0.25
229.967,0.27
230.183,0.26
230.398,0.23
230.614,0.21
230.83,0.17
231.045,0.18
231.261,0.17
231.476,0.18
231.692,0.14
231.908,0.15
232.123,0.17
232.339,0.18
232.554,0.17
232.77,0.2
232.986,0.22
233.201,0.18
233.417,0.19
233.632,0.22
233.848,0.21
234.063,0.23
234.279,0.25
234.494,0.23
234.71,0.23
234.925,0.24
235.14,0.23
235.356,0.21
235.571,0.22
235.787,0.23
236.002,0.27
236.217,0.26
236.433,0.28
236.648,0.27
236.864,0.26
237.079,0.25
237.294,0.24
237.51,0.25
237.725,0.24
237.94,0.26
238.155,0.23
238.371,0.25
238.586,0.23
238.801,0.25
239.016,0.24
239.232,0.24
239.447,0.26
239.662,0.26
239.877,0.26
240.093,0.25
240.308,0.27
240.523,0.25
240.738,0.28
240.953,0.31
241.168,0.32
241.383,0.31
241.599,0.35
241.814,0.31
242.029,0.32
242.244,0.33
242.459,0.32
242.674,0.27
242.889,0.27
243.104,0.24
243.319,0.22
243.534,0.24
243.749,0.25
243.964,0.24
244.179,0.26
244.394,0.27
244.609,0.3
244.824,0.28
245.039,0.27
245.254,0.28
245.469,0.26
245.684,0.25
245.899,0.27
246.113,0.27
246.328,0.27
246.543,0.28
246.758,0.28
246.973,0.28
247.188,0.3
247.402,0.26
247.617,0.29
247.832,0.29
248.047,0.29
248.262,0.28
248.476,0.31
248.691,0.3
248.906,0.31
249.121,0.33
249.335,0.35
249.55,0.37
249.765,0.35
249.979,0.35
250.194,0.36
250.409,0.4
250.623,0.45
250.838,0.5
251.053,0.55
251.267,0.59
251.482,0.61
251.697,0.67
251.911,0.76
252.126,0.85
252.34,0.92
252.555,01.01
252.769,01.04
252.984,01.04
253.198,01.09
253.413,1.12
253.627,1.19
253.842,1.21
254.056,1.28
254.271,1.3
254.485,1.35
254.7,1.4
254.914,1.49
255.129,1.56
255.343,1.58
255.557,1.6
255.772,1.64
255.986,1.63
256.201,1.65
256.415,1.69
256.629,1.74
256.844,1.71
257.058,1.74
257.272,1.75
257.486,1.79
257.701,1.8
257.915,1.84
258.129,1.83
258.344,1.84
258.558,1.84
258.772,1.85
258.986,1.86
259.2,1.87
259.415,1.87
259.629,1.88
259.843,1.87
260.057,1.88
260.271,1.88
260.485,1.88
260.7,1.91
260.914,1.91
261.128,1.9
261.342,1.9
261.556,1.9
261.77,1.86
261.984,1.85
262.198,1.85
262.412,1.83
262.626,1.83
262.84,1.81
263.054,1.8
263.268,1.76
263.482,1.73
263.696,1.7
263.91,1.68
264.124,1.63
264.338,1.62
264.552,1.6
264.766,1.58
264.98,1.56
265.194,1.56
265.408,1.54
265.622,1.51
265.835,1.49
266.049,1.47
266.263,1.44
266.477,1.42
266.691,1.41
266.905,1.38
267.118,1.36
267.332,1.35
267.546,1.33
267.76,1.31
267.973,1.3
268.187,1.29
268.401,1.27
268.615,1.26
268.828,1.25
269.042,1.23
269.256,1.22
269.469,1.21
269.683,1.19
269.897,1.18
270.11,1.17
270.324,1.16
270.538,1.15
270.751,1.14
270.965,1.14
271.178,1.13
271.392,1.12
271.606,1.11
271.819,1.1
272.033,01.09
272.246,01.09
272.46,01.08
272.673,01.07
272.887,01.06
273.1,01.05
273.314,01.05
273.527,01.04
273.741,01.04
273.954,01.03
274.167,01.03
274.381,01.02
274.594,01.02
274.808,01.02
275.021,01.01
275.234,01.01
275.448,01.01
275.661,1
275.874,1
276.088,1
276.301,0.99
276.514,0.99
276.728,0.99
276.941,0.99
277.154,0.98
277.367,0.98
277.581,0.98
277.794,0.97
278.007,0.97
278.22,0.97
278.434,0.96
278.647,0.96
278.86,0.96
279.073,0.96
279.286,0.96
279.499,0.96
279.713,0.96
279.926,0.95
280.139,0.95
280.352,0.95
280.565,0.95
280.778,0.94
280.991,0.94
281.204,0.94
281.417,0.94
281.63,0.94
281.843,0.94
282.056,0.94
282.269,0.93
282.482,0.93
282.695,0.93
282.908,0.93
283.121,0.93
283.334,0.93
283.547,0.93
283.76,0.92
283.973,0.92
284.186,0.92
284.399,0.92
284.612,0.92
284.824,0.92
285.037,0.92
285.25,0.92
285.463,0.91
285.676,0.91
285.889,0.91
286.101,0.91
286.314,0.91
286.527,0.91
286.74,0.91
286.952,0.91
287.165,0.91
287.378,0.9
287.591,0.9
287.803,0.9
288.016,0.9
288.229,0.9
288.441,0.9
288.654,0.89
288.867,0.89
289.079,0.89
289.292,0.89
289.505,0.89
289.717,0.88
289.93,0.88
290.142,0.88
290.355,0.88
290.567,0.88
290.78,0.88
290.992,0.87
291.205,0.87
291.417,0.87
291.63,0.87
291.842,0.87
292.055,0.87
292.267,0.87
292.48,0.86
292.692,0.86
292.905,0.86
293.117,0.85
293.33,0.85
293.542,0.85
293.754,0.85
293.967,0.84
294.179,0.84
294.391,0.84
294.604,0.84
294.816,0.84
295.028,0.83
295.241,0.83
295.453,0.83
295.665,0.83
295.878,0.82
296.09,0.82
296.302,0.82
296.514,0.82
296.727,0.81
296.939,0.81
297.151,0.81
297.363,0.8
297.575,0.8
297.787,0.8
298,0.79
298.212,0.79
298.424,0.79
298.636,0.78
298.848,0.78
299.06,0.77
299.272,0.77
299.484,0.77
299.696,0.76
299.908,0.76
300.121,0.76
300.333,0.75
300.545,0.75
300.757,0.74
300.969,0.74
301.181,0.73
301.393,0.73
301.604,0.72
301.816,0.72
302.028,0.72
302.24,0.71
302.452,0.71
302.664,0.7
302.876,0.7
303.088,0.69
303.3,0.69
303.512,0.68
303.723,0.68
303.935,0.67
304.147,0.67
304.359,0.66
304.571,0.66
304.782,0.65
304.994,0.65
305.206,0.64
305.418,0.64
305.63,0.63
305.841,0.63
306.053,0.62
306.265,0.61
306.476,0.61
306.688,0.6
306.9,0.6
307.111,0.59
307.323,0.58
307.535,0.58
307.746,0.57
307.958,0.57
308.17,0.56
308.381,0.55
308.593,0.55
308.804,0.54
309.016,0.53
309.227,0.53
309.439,0.52
309.65,0.52
309.862,0.51
310.073,0.5
310.285,0.49
310.496,0.49
310.708,0.48
310.919,0.48
311.131,0.47
311.342,0.46
311.554,0.45
311.765,0.45
311.976,0.44
312.188,0.43
312.399,0.42
312.61,0.42
312.822,0.41
313.033,0.4
313.244,0.39
313.456,0.39
313.667,0.38
313.878,0.37
314.09,0.37
314.301,0.36
314.512,0.35
314.723,0.34
314.935,0.34
315.146,0.33
315.357,0.32
315.568,0.31
315.779,0.31
315.991,0.3
316.202,0.29
316.413,0.29
316.624,0.28
316.835,0.27
317.046,0.27
317.257,0.26
317.468,0.25
317.68,0.25
317.891,0.24
318.102,0.24
318.313,0.23
318.524,0.22
318.735,0.22
318.946,0.21
319.157,0.21
319.368,0.2
319.579,0.2
319.79,0.19
320.001,0.19
320.212,0.18
320.423,0.18
320.633,0.17
320.844,0.17
321.055,0.16
321.266,0.16
321.477,0.16
321.688,0.15
321.899,0.15
322.11,0.14
322.32,0.14
322.531,0.14
322.742,0.13
322.953,0.13
323.163,0.13
323.374,0.12
323.585,0.12
323.796,0.12
324.006,0.11
324.217,0.11
324.428,0.11
324.639,0.11
324.849,0.1
325.06,0.1
325.271,0.1
325.481,0.1
325.692,0.09
325.902,0.09
326.113,0.09
326.324,0.09
326.534,0.09
326.745,0.09
326.955,0.08
327.166,0.08
327.377,0.08
327.587,0.08
327.798,0.08
328.008,0.08
328.219,0.08
328.429,0.08
328.64,0.08
328.85,0.08
329.06,0.07
329.271,0.07
329.481,0.07
329.692,0.07
329.902,0.07
330.112,0.06
330.323,0.06
330.533,0.06
330.744,0.06
330.954,0.06
331.164,0.06
331.375,0.06
331.585,0.06
331.795,0.06
332.005,0.05
332.216,0.05
332.426,0.05
332.636,0.05
332.846,0.05
333.057,0.05
333.267,0.05
333.477,0.05
333.687,0.05
333.897,0.05
334.108,0.05
334.318,0.05
334.528,0.05
334.738,0.05
334.948,0.05
335.158,0.04
335.368,0.04
335.578,0.04
335.788,0.04
335.998,0.04
336.209,0.04
336.419,0.04
336.629,0.04
336.839,0.04
337.049,0.04
337.259,0.04
337.469,0.04
337.679,0.04
337.888,0.04
338.098,0.04
338.308,0.04
338.518,0.04
338.728,0.04
338.938,0.04
339.148,0.04
339.358,0.04
339.568,0.04
339.777,0.04
339.987,0.04
340.197,0.04
340.407,0.04
340.617,0.04
340.826,0.04
341.036,0.04
341.246,0.04
341.456,0.04
341.666,0.04
341.875,0.04
342.085,0.04
342.295,0.04
342.504,0.03
342.714,0.03
342.924,0.03
343.133,0.03
343.343,0.03
343.553,0.03
343.762,0.03
343.972,0.03
344.181,0.03
344.391,0.03
344.601,0.03
344.81,0.03
345.02,0.03
345.229,0.03
345.439,0.03
345.648,0.03
345.858,0.03
346.067,0.03
346.277,0.03
346.486,0.03
346.696,0.03
346.905,0.03
347.114,0.03
347.324,0.03
347.533,0.03
347.743,0.03
347.952,0.03
348.161,0.03
348.371,0.03
348.58,0.03
348.789,0.03
348.999,0.03
349.208,0.03
349.417,0.03
349.627,0.03
349.836,0.03
350.045,0.03
350.254,0.03
350.464,0.03
350.673,0.03
350.882,0.03
351.091,0.03
351.3,0.03
351.51,0.03
351.719,0.03
351.928,0.03
352.137,0.03
352.346,0.03
352.555,0.03
352.764,0.03
352.973,0.03
353.183,0.03
353.392,0.03
353.601,0.03
353.81,0.03
354.019,0.03
354.228,0.03
354.437,0.03
354.646,0.03
354.855,0.03
355.064,0.03
355.273,0.03
355.482,0.03
355.691,0.03
355.899,0.03
356.108,0.03
356.317,0.03
356.526,0.03
356.735,0.03
356.944,0.03
357.153,0.03
357.362,0.03
357.57,0.03
357.779,0.03
357.988,0.03
358.197,0.03
358.406,0.03
358.614,0.03
358.823,0.03
359.032,0.03
359.241,0.03
359.449,0.03
359.658,0.03
359.867,0.03
360.075,0.03
360.284,0.03
360.493,0.03
360.701,0.03
360.91,0.03
361.119,0.03
361.327,0.03
361.536,0.03
361.744,0.03
361.953,0.03
362.161,0.03
362.37,0.03
362.579,0.03
362.787,0.03
362.996,0.03
363.204,0.03
363.413,0.03
363.621,0.03
363.83,0.03
364.038,0.03
364.246,0.03
364.455,0.03
364.663,0.03
364.872,0.03
365.08,0.03
365.288,0.03
365.497,0.03
365.705,0.03
365.913,0.03
366.122,0.03
366.33,0.03
366.538,0.03
366.747,0.03
366.955,0.03
367.163,0.03
367.372,0.03
367.58,0.03
367.788,0.03
367.996,0.03
368.204,0.03
368.413,0.03
368.621,0.03
368.829,0.03
369.037,0.03
369.245,0.03
369.453,0.03
369.662,0.03
369.87,0.03
370.078,0.03
370.286,0.03
370.494,0.03
370.702,0.03
370.91,0.03
371.118,0.03
371.326,0.03
371.534,0.03
371.742,0.03
371.95,0.03
372.158,0.03
372.366,0.03
372.574,0.03
372.782,0.03
372.99,0.03
373.198,0.03
373.406,0.03
373.614,0.03
373.821,0.03
374.029,0.03
374.237,0.03
374.445,0.03
374.653,0.03
374.861,0.03
375.068,0.03
375.276,0.03
375.484,0.03
375.692,0.03
375.899,0.03
376.107,0.03
376.315,0.03
376.523,0.03
376.73,0.03
376.938,0.03
377.146,0.03
377.353,0.03
377.561,0.03
377.769,0.03
377.976,0.03
378.184,0.03
378.392,0.03
378.599,0.03
378.807,0.03
379.014,0.03
379.222,0.03
379.429,0.03
379.637,0.03
379.845,0.03
380.052,0.03
380.26,0.03
380.467,0.03
380.674,0.03
380.882,0.03
381.089,0.03
381.297,0.03
381.504,0.03
381.712,0.03
381.919,0.03
382.126,0.03
382.334,0.03
382.541,0.03
382.749,0.03
382.956,0.03
383.163,0.03
383.371,0.03
383.578,0.03
383.785,0.03
383.992,0.03
384.2,0.03
384.407,0.03
384.614,0.03
384.821,0.03
385.029,0.03
385.236,0.03
385.443,0.03
385.65,0.03
385.857,0.03
386.064,0.03
386.272,0.03
386.479,0.03
386.686,0.03
386.893,0.03
387.1,0.03
387.307,0.03
387.514,0.03
387.721,0.03
387.928,0.03
388.135,0.03
388.342,0.03
388.549,0.03
388.756,0.03
388.963,0.03
389.17,0.03
389.377,0.03
389.584,0.03
389.791,0.03
389.998,0.03
390.205,0.03
390.412,0.03
390.619,0.03
390.826,0.03
391.032,0.03
391.239,0.03
391.446,0.03
391.653,0.03
391.86,0.03
392.067,0.03
392.273,0.03
392.48,0.03
392.687,0.03
392.894,0.03
393.1,0.03
393.307,0.03
393.514,0.03
393.72,0.03
393.927,0.03
394.134,0.03
394.34,0.03
394.547,0.03
394.754,0.03
394.96,0.03
395.167,0.03
395.374,0.03
395.58,0.03
395.787,0.03
395.993,0.03
396.2,0.03
396.406,0.03
396.613,0.03
396.819,0.03
397.026,0.03
397.232,0.03
397.439,0.03
397.645,0.03
397.852,0.03
398.058,0.03
398.265,0.03
398.471,0.03
398.677,0.03
398.884,0.03
399.09,0.03
399.297,0.03
399.503,0.03
399.709,0.03
399.916,0.03
400.122,0.03
400.328,0.03
400.534,0.03
400.741,0.03
400.947,0.03
401.153,0.03
401.359,0.03
401.566,0.03
401.772,0.03
401.978,0.03
402.184,0.03
402.39,0.03
402.597,0.03
402.803,0.03
403.009,0.03
403.215,0.03
403.421,0.03
403.627,0.03
403.833,0.03
404.039,0.03
404.245,0.03
404.452,0.03
404.658,0.03
404.864,0.03
405.07,0.03
405.276,0.03
405.482,0.03
405.688,0.03
405.893,0.03
406.099,0.03
406.305,0.03
406.511,0.03
406.717,0.03
406.923,0.03
407.129,0.03
407.335,0.03
407.541,0.03
407.747,0.03
407.952,0.03
408.158,0.03
408.364,0.03
408.57,0.03
408.776,0.03
408.981,0.03
409.187,0.03
409.393,0.03
409.599,0.03
409.804,0.03
410.01,0.03
410.216,0.03
410.421,0.03
410.627,0.03
410.833,0.03
411.038,0.03
411.244,0.03
411.45,0.03
411.655,0.03
411.861,0.03
412.066,0.03
412.272,0.03
412.478,0.03
412.683,0.03
412.889,0.03
413.094,0.03
413.3,0.03
413.505,0.03
413.711,0.03
413.916,0.03
414.122,0.03
414.327,0.03
414.532,0.03
414.738,0.03
414.943,0.03
415.149,0.03
415.354,0.03
415.559,0.03
415.765,0.03
415.97,0.03
416.175,0.03
416.381,0.03
416.586,0.03
416.791,0.03
416.997,0.03
417.202,0.03
417.407,0.03
417.612,0.03
417.818,0.03
418.023,0.03
418.228,0.03
418.433,0.03
418.638,0.03
418.844,0.03
419.049,0.03
419.254,0.03
419.459,0.03
419.664,0.03
419.869,0.03
420.074,0.03
420.279,0.03
420.484,0.03
420.69,0.03
420.895,0.03
421.1,0.03
421.305,0.03
421.51,0.03
421.715,0.03
421.92,0.03
422.125,0.03
422.329,0.03
422.534,0.03
422.739,0.03
422.944,0.03
423.149,0.03
423.354,0.03
423.559,0.03
423.764,0.03
423.969,0.03
424.173,0.03
424.378,0.03
424.583,0.03
424.788,0.03
424.993,0.03
425.197,0.03
425.402,0.03
425.607,0.03
425.812,0.03
426.016,0.03
426.221,0.03
426.426,0.03
426.631,0.03
426.835,0.03
427.04,0.03
427.244,0.03
427.449,0.03
427.654,0.03
427.858,0.03
428.063,0.03
428.268,0.03
428.472,0.03
428.677,0.03
428.881,0.03
429.086,0.03
429.29,0.03
429.495,0.03
429.699,0.03
429.904,0.03
430.108,0.03
430.313,0.03
430.517,0.03
430.722,0.03
430.926,0.03
431.13,0.03
431.335,0.03
431.539,0.03
431.743,0.03
431.948,0.03
432.152,0.03
432.356,0.03
432.561,0.03
432.765,0.03
432.969,0.03
433.174,0.03
433.378,0.03
433.582,0.03
433.786,0.03
433.991,0.03
434.195,0.03
434.399,0.03
434.603,0.03
434.807,0.03
435.012,0.03
435.216,0.03
435.42,0.03
435.624,0.03
435.828,0.03
436.032,0.03
436.236,0.03
436.44,0.03
436.644,0.03
436.848,0.03
437.052,0.03
437.256,0.03
437.46,0.03
437.664,0.03
437.868,0.03
438.072,0.03
438.276,0.03
438.48,0.03
438.684,0.03
438.888,0.03
439.092,0.03
439.296,0.03
439.5,0.03
439.704,0.03
439.908,0.03
440.111,0.03
440.315,0.03
440.519,0.03
440.723,0.03
440.927,0.03
441.13,0.03
441.334,0.03
441.538,0.03
441.742,0.03
441.945,0.03
442.149,0.03
442.353,0.03
442.556,0.03
442.76,0.03
442.964,0.03
443.167,0.03
443.371,0.03
443.575,0.03
443.778,0.03
443.982,0.03
444.185,0.03
444.389,0.03
444.593,0.03
444.796,0.03
445,0.03
445.203,0.03
445.407,0.03
445.61,0.03
445.814,0.03
446.017,0.03
446.221,0.03
446.424,0.03
446.627,0.03
446.831,0.03
447.034,0.03
447.238,0.03
447.441,0.03
447.644,0.03
447.848,0.03
448.051,0.03
448.254,0.03
448.458,0.03
448.661,0.03
448.864,0.03
449.067,0.03
449.271,0.03
449.474,0.03
449.677,0.03
449.88,0.03
450.084,0.03
450.287,0.03
450.49,0.03
450.693,0.03
450.896,0.03
451.099,0.03
451.303,0.03
451.506,0.03
451.709,0.03
451.912,0.03
452.115,0.03
452.318,0.03
452.521,0.03
452.724,0.03
452.927,0.03
453.13,0.03
453.333,0.03
453.536,0.03
453.739,0.03
453.942,0.03
454.145,0.03
454.348,0.03
454.551,0.03
454.754,0.03
454.957,0.03
455.16,0.03
455.362,0.03
455.565,0.03
455.768,0.03
455.971,0.03
456.174,0.03
456.377,0.03
456.579,0.03
456.782,0.03
456.985,0.03
457.188,0.03
457.39,0.03
457.593,0.03
457.796,0.03
457.998,0.03
458.201,0.03
458.404,0.03
458.606,0.03
458.809,0.03
459.012,0.03
459.214,0.03
459.417,0.03
459.62,0.03
459.822,0.03
460.025,0.03
460.227,0.03
460.43,0.03
460.632,0.03
460.835,0.03
461.037,0.03
461.24,0.03
461.442,0.03
461.645,0.03
461.847,0.03
462.05,0.03
462.252,0.03
462.454,0.03
462.657,0.03
462.859,0.03
463.062,0.03
463.264,0.03
463.466,0.03
463.669,0.03
463.871,0.03
464.073,0.03
464.276,0.03
464.478,0.03
464.68,0.03
464.882,0.03
465.085,0.03
465.287,0.03
465.489,0.03
465.691,0.03
465.893,0.03
466.096,0.03
466.298,0.03
466.5,0.03
466.702,0.03
466.904,0.03
467.106,0.03
467.308,0.03
467.51,0.03
467.713,0.03
467.915,0.03
468.117,0.03
468.319,0.03
468.521,0.03
468.723,0.03
468.925,0.03
469.127,0.03
469.329,0.03
469.531,0.03
469.732,0.03
469.934,0.03
470.136,0.03
470.338,0.03
470.54,0.03
470.742,0.03
470.944,0.03
471.146,0.03
471.348,0.03
471.549,0.03
471.751,0.03
471.953,0.03
472.155,0.03
472.356,0.03
472.558,0.03
472.76,0.03
472.962,0.03
473.163,0.03
473.365,0.03
473.567,0.03
473.768,0.03
473.97,0.03
474.172,0.03
474.373,0.03
474.575,0.03
474.777,0.03
474.978,0.03
475.18,0.03
475.381,0.03
475.583,0.03
475.784,0.03
475.986,0.03
476.187,0.03
476.389,0.03
476.59,0.03
476.792,0.03
476.993,0.03
477.195,0.03
477.396,0.03
477.598,0.03
477.799,0.03
478.001,0.03
478.202,0.03
478.403,0.03
478.605,0.03
478.806,0.03
479.007,0.03
479.209,0.03
479.41,0.03
479.611,0.03
479.812,0.03
480.014,0.03
480.215,0.03
480.416,0.03
480.617,0.03
480.819,0.03
481.02,0.03
481.221,0.03
481.422,0.03
481.623,0.03
481.825,0.03
482.026,0.03
482.227,0.03
482.428,0.03
482.629,0.03
482.83,0.03
483.031,0.03
483.232,0.03
483.433,0.03
483.634,0.03
483.835,0.03
484.036,0.03
484.237,0.03
484.438,0.03
484.639,0.03
484.84,0.03
485.041,0.03
485.242,0.03
485.443,0.03
485.644,0.03
485.845,0.03
486.045,0.03
486.246,0.03
486.447,0.03
486.648,0.03
486.849,0.03
487.05,0.03
487.25,0.03
487.451,0.03
487.652,0.03
487.853,0.03
488.053,0.03
488.254,0.03
488.455,0.03
488.655,0.03
488.856,0.03
489.057,0.03
489.257,0.03
489.458,0.03
489.659,0.03
489.859,0.03
490.06,0.03
490.26,0.03
490.461,0.03
490.662,0.03
490.862,0.03
491.063,0.03
491.263,0.03
491.464,0.03
491.664,0.03
491.865,0.03
492.065,0.03
492.266,0.03
492.466,0.03
492.666,0.04
492.867,0.04
493.067,0.03
493.268,0.03
493.468,0.03
493.668,0.03
493.869,0.03
494.069,0.03
494.269,0.03
494.47,0.03
494.67,0.03
494.87,0.03
495.07,0.04
495.271,0.03
495.471,0.03
495.671,0.03
495.871,0.03
496.072,0.03
496.272,0.03
496.472,0.03
496.672,0.03
496.872,0.03
497.072,0.03
497.272,0.03
497.472,0.03
497.673,0.03
497.873,0.03
498.073,0.03
498.273,0.03
498.473,0.03
498.673,0.03
498.873,0.03
499.073,0.03
499.273,0.03
499.473,0.03
499.673,0.03
499.873,0.03
500.073,0.03
500.272,0.03
500.472,0.03
500.672,0.03
500.872,0.03
501.072,0.03
501.272,0.03
501.472,0.03
501.671,0.03
501.871,0.03
502.071,0.03
502.271,0.03
502.471,0.03
502.67,0.03
502.87,0.03
503.07,0.03
503.27,0.03
503.469,0.03
503.669,0.03
503.869,0.03
504.068,0.03
504.268,0.03
504.467,0.03
504.667,0.03
504.867,0.03
505.066,0.03
505.266,0.03
505.465,0.03
505.665,0.03
505.864,0.03
506.064,0.03
506.263,0.03
506.463,0.03
506.662,0.03
506.862,0.03
507.061,0.03
507.261,0.03
507.46,0.03
507.66,0.03
507.859,0.03
508.058,0.03
508.258,0.03
508.457,0.03
508.657,0.03
508.856,0.03
509.055,0.03
509.254,0.03
509.454,0.03
509.653,0.03
509.852,0.03
510.052,0.03
510.251,0.03
510.45,0.03
510.649,0.03
510.848,0.03
511.048,0.03
511.247,0.03
511.446,0.03
511.645,0.03
511.844,0.03
512.043,0.03
512.242,0.03
512.441,0.03
512.64,0.03
512.84,0.03
513.039,0.03
513.238,0.03
513.437,0.03
513.636,0.03
513.835,0.03
514.034,0.03
514.233,0.03
514.432,0.03
514.63,0.03
514.829,0.03
515.028,0.03
515.227,0.03
515.426,0.03
515.625,0.03
515.824,0.03
516.023,0.03
516.221,0.03
516.42,0.03
516.619,0.03
516.818,0.04
517.017,0.04
517.215,0.03
517.414,0.03
517.613,0.03
517.812,0.03
518.01,0.03
518.209,0.03
518.408,0.03
518.606,0.03
518.805,0.03
519.004,0.03
519.202,0.04
519.401,0.03
519.599,0.03
519.798,0.03
519.997,0.03
520.195,0.03
520.394,0.03
520.592,0.03
520.791,0.03
520.989,0.03
521.188,0.03
521.386,0.03
521.585,0.03
521.783,0.03
521.981,0.03
522.18,0.04
522.378,0.04
522.577,0.04
522.775,0.04
522.973,0.04
523.172,0.04
523.37,0.04
523.568,0.04
523.767,0.04
523.965,0.04
524.163,0.04
524.361,0.04
524.56,0.04
524.758,0.04
524.956,0.04
525.154,0.04
525.353,0.04
525.551,0.04
525.749,0.04
525.947,0.04
526.145,0.04
526.343,0.04
526.541,0.04
526.74,0.04
526.938,0.04
527.136,0.04
527.334,0.04
527.532,0.04
527.73,0.04
527.928,0.04
528.126,0.04
528.324,0.04
528.522,0.04
528.72,0.04
528.918,0.04
529.116,0.04
529.314,0.04
529.512,0.04
529.709,0.04
529.907,0.04
530.105,0.04
530.303,0.04
530.501,0.04
530.699,0.04
530.896,0.04
531.094,0.04
531.292,0.04
531.49,0.04
531.688,0.04
531.885,0.04
532.083,0.04
532.281,0.04
532.478,0.04
532.676,0.04
532.874,0.04
533.071,0.04
533.269,0.04
533.467,0.04
533.664,0.04
533.862,0.04
534.06,0.04
534.257,0.04
534.455,0.04
534.652,0.04
534.85,0.04
535.047,0.04
535.245,0.04
535.442,0.04
535.64,0.04
535.837,0.04
536.035,0.04
536.232,0.04
536.43,0.04
536.627,0.04
536.824,0.04
537.022,0.04
537.219,0.04
537.416,0.04
537.614,0.04
537.811,0.04
538.008,0.04
538.206,0.04
538.403,0.04
538.6,0.04
538.798,0.04
538.995,0.04
539.192,0.04
539.389,0.04
539.586,0.04
539.784,0.04
539.981,0.04
540.178,0.04
540.375,0.04
540.572,0.04
540.769,0.04
540.966,0.04
541.164,0.04
541.361,0.04
541.558,0.04
541.755,0.04
541.952,0.04
542.149,0.04
542.346,0.04
542.543,0.04
542.74,0.04
542.937,0.04
543.134,0.04
543.331,0.04
543.528,0.04
543.724,0.04
543.921,0.04
544.118,0.04
544.315,0.04
544.512,0.04
544.709,0.04
544.906,0.04
545.102,0.04
545.299,0.04
545.496,0.04
545.693,0.04
545.889,0.04
546.086,0.04
546.283,0.04
546.48,0.04
546.676,0.04
546.873,0.04
547.07,0.04
547.266,0.04
547.463,0.04
547.66,0.04
547.856,0.04
548.053,0.04
548.249,0.04
548.446,0.04
548.643,0.04
548.839,0.04
549.036,0.04
549.232,0.04
549.429,0.04
549.625,0.04
549.822,0.04
550.018,0.04
550.215,0.04
550.411,0.04
550.607,0.04
550.804,0.04
551,0.04
551.197,0.04
551.393,0.04
551.589,0.04
551.786,0.04
551.982,0.04
552.178,0.04
552.375,0.04
552.571,0.04
552.767,0.04
552.963,0.04
553.16,0.04
553.356,0.04
553.552,0.04
553.748,0.04
553.944,0.04
554.141,0.04
554.337,0.04
554.533,0.04
554.729,0.04
554.925,0.04
555.121,0.04
555.317,0.04
555.513,0.04
555.709,0.04
555.905,0.04
556.101,0.04
556.297,0.04
556.493,0.04
556.689,0.04
556.885,0.04
557.081,0.04
557.277,0.04
557.473,0.04
557.669,0.04
557.865,0.04
558.061,0.04
558.257,0.04
558.453,0.04
558.649,0.04
558.844,0.04
559.04,0.04
559.236,0.04
559.432,0.04
559.628,0.04
559.823,0.04
560.019,0.04
560.215,0.04
560.41,0.04
560.606,0.04
560.802,0.04
560.998,0.04
561.193,0.04
561.389,0.04
561.584,0.04
561.78,0.04
561.976,0.04
562.171,0.04
562.367,0.04
562.562,0.04
562.758,0.04
562.954,0.04
563.149,0.04
563.345,0.04
563.54,0.04
563.735,0.04
563.931,0.04
564.126,0.04
564.322,0.04
564.517,0.04
564.713,0.04
564.908,0.04
565.103,0.04
565.299,0.04
565.494,0.04
565.689,0.04
565.885,0.04
566.08,0.04
566.275,0.04
566.471,0.04
566.666,0.04
566.861,0.04
567.056,0.04
567.252,0.04
567.447,0.04
567.642,0.04
567.837,0.04
568.032,0.04
568.228,0.04
568.423,0.04
568.618,0.04
568.813,0.04
569.008,0.04
569.203,0.04
569.398,0.04
569.593,0.04
569.788,0.04
569.983,0.04
570.178,0.04
570.373,0.04
570.568,0.04
570.763,0.04
570.958,0.04
571.153,0.04
571.348,0.04
571.543,0.04
571.738,0.04
571.933,0.04
572.128,0.04
572.322,0.04
572.517,0.04
572.712,0.04
572.907,0.04
573.102,0.04
573.296,0.04
573.491,0.04
573.686,0.04
573.881,0.04
574.075,0.04
574.27,0.04
574.465,0.04
574.66,0.04
574.854,0.04
575.049,0.04
575.244,0.04
575.438,0.04
575.633,0.04
575.827,0.04
576.022,0.04
576.216,0.04
576.411,0.04
576.606,0.04
576.8,0.04
576.995,0.04
577.189,0.04
577.384,0.04
577.578,0.04
577.773,0.04
577.967,0.04
578.161,0.04
578.356,0.04
578.55,0.04
578.745,0.04
578.939,0.04
579.133,0.04
579.328,0.04
579.522,0.03
579.716,0.04
579.911,0.04
580.105,0.04
580.299,0.04
580.493,0.04
580.688,0.04
580.882,0.04
581.076,0.04
581.27,0.04
581.464,0.04
581.659,0.04
581.853,0.04
582.047,0.04
582.241,0.04
582.435,0.04
582.629,0.04
582.823,0.03
583.017,0.03
583.211,0.04
583.405,0.03
583.599,0.03
583.793,0.04
583.987,0.04
584.181,0.04
584.375,0.04
584.569,0.04
584.763,0.04
584.957,0.04
585.151,0.04
585.345,0.04
585.539,0.04
585.733,0.04
585.927,0.04
586.12,0.04
586.314,0.04
586.508,0.04
586.702,0.04
586.896,0.04
587.089,0.04
587.283,0.04
587.477,0.04
587.671,0.04
587.864,0.04
588.058,0.04
588.252,0.04
588.445,0.04
588.639,0.04
588.833,0.04
589.026,0.04
589.22,0.04
589.413,0.04
589.607,0.04
589.801,0.04
589.994,0.04
590.188,0.04
590.381,0.04
590.575,0.04
590.768,0.04
590.962,0.04
591.155,0.04
591.349,0.04
591.542,0.04
591.735,0.04
591.929,0.04
592.122,0.04
592.316,0.04
592.509,0.04
592.702,0.04
592.896,0.04
593.089,0.04
593.282,0.04
593.476,0.04
593.669,0.04
593.862,0.04
594.055,0.04
594.249,0.04
594.442,0.04
594.635,0.04
594.828,0.04
595.021,0.04
595.214,0.04
595.408,0.04
595.601,0.04
595.794,0.04
595.987,0.04
596.18,0.04
596.373,0.04
596.566,0.04
596.759,0.04
596.952,0.04
597.145,0.04
597.338,0.04
597.531,0.04
597.724,0.04
597.917,0.04
598.11,0.04
598.303,0.04
598.496,0.04
598.689,0.04
598.882,0.04
599.075,0.04
599.267,0.04
599.46,0.04
599.653,0.04
599.846,0.04
600.039,0.04
600.232,0.04
600.424,0.04
600.617,0.04
600.81,0.04
601.003,0.04
601.195,0.04
601.388,0.04
601.581,0.03
601.773,0.03
601.966,0.04
602.159,0.04
602.351,0.04
602.544,0.04
602.736,0.04
602.929,0.04
603.122,0.04
603.314,0.04
603.507,0.04
603.699,0.04
603.892,0.04
604.084,0.04
604.277,0.04
604.469,0.04
604.662,0.04
604.854,0.04
605.046,0.04
605.239,0.04
605.431,0.04
605.624,0.04
605.816,0.04
606.008,0.04
606.201,0.04
606.393,0.04
606.585,0.04
606.777,0.04
606.97,0.04
607.162,0.04
607.354,0.04
607.546,0.04
607.739,0.04
607.931,0.04
608.123,0.04
608.315,0.04
608.507,0.04
608.7,0.04
608.892,0.04
609.084,0.04
609.276,0.04
609.468,0.04
609.66,0.04
609.852,0.04
610.044,0.04
610.236,0.04
610.428,0.04
610.62,0.04
610.812,0.04
611.004,0.04
611.196,0.04
611.388,0.04
611.58,0.04
611.772,0.04
611.964,0.04
612.156,0.04
612.347,0.04
612.539,0.04
612.731,0.04
612.923,0.04
613.115,0.04
613.306,0.04
613.498,0.04
613.69,0.04
613.882,0.04
614.074,0.04
614.265,0.04
614.457,0.04
614.649,0.04
614.84,0.04
615.032,0.04
615.224,0.04
615.415,0.04
615.607,0.04
615.798,0.04
615.99,0.04
616.182,0.04
616.373,0.04
616.565,0.04
616.756,0.04
616.948,0.04
617.139,0.04
617.331,0.04
617.522,0.04
617.714,0.04
617.905,0.04
618.096,0.04
618.288,0.04
618.479,0.04
618.671,0.04
618.862,0.04
619.053,0.04
619.245,0.04
619.436,0.04
619.627,0.04
619.819,0.04
620.01,0.04
620.201,0.04
620.392,0.04
620.584,0.04
620.775,0.04
620.966,0.04
621.157,0.04
621.348,0.04
621.54,0.04
621.731,0.04
621.922,0.04
622.113,0.04
622.304,0.04
622.495,0.04
622.686,0.04
622.877,0.04
623.068,0.04
623.259,0.04
623.45,0.04
623.641,0.04
623.832,0.04
624.023,0.04
624.214,0.04
624.405,0.04
624.596,0.04
624.787,0.04
624.978,0.04
625.169,0.04
625.36,0.04
625.55,0.04
625.741,0.04
625.932,0.04
626.123,0.04
626.314,0.04
626.504,0.04
626.695,0.04
626.886,0.04
627.077,0.04
627.267,0.04
627.458,0.04
627.649,0.04
627.839,0.04
628.03,0.04
628.221,0.04
628.411,0.04
628.602,0.04
628.793,0.04
628.983,0.04
629.174,0.04
629.364,0.04
629.555,0.04
629.745,0.04
629.936,0.04
630.126,0.04
630.317,0.04
630.507,0.04
630.698,0.04
630.888,0.04
631.079,0.04
631.269,0.04
631.459,0.04
631.65,0.04
631.84,0.04
632.03,0.04
632.221,0.04
632.411,0.04
632.601,0.04
632.792,0.04
632.982,0.04
633.172,0.04
633.362,0.04
633.553,0.04
633.743,0.04
633.933,0.04
634.123,0.04
634.313,0.04
634.503,0.04
634.694,0.04
634.884,0.04
635.074,0.04
635.264,0.04
635.454,0.04
635.644,0.04
635.834,0.04
636.024,0.04
636.214,0.04
636.404,0.04
636.594,0.04
636.784,0.04
636.974,0.04
637.164,0.04
637.354,0.04
637.544,0.04
637.734,0.04
637.924,0.04
638.113,0.04
638.303,0.04
638.493,0.04
638.683,0.04
638.873,0.04
639.063,0.04
639.252,0.04
639.442,0.04
639.632,0.04
639.822,0.04
640.011,0.04
640.201,0.04
640.391,0.04
640.58,0.04
640.77,0.04
640.96,0.04
641.149,0.04
641.339,0.04
641.528,0.04
641.718,0.04
641.908,0.04
642.097,0.04
642.287,0.04
642.476,0.04
642.666,0.04
642.855,0.04
643.045,0.04
643.234,0.04
643.424,0.04
643.613,0.04
643.802,0.04
643.992,0.04
644.181,0.04
644.371,0.04
644.56,0.04
644.749,0.04
644.939,0.04
645.128,0.04
645.317,0.04
645.507,0.04
645.696,0.04
645.885,0.04
646.074,0.04
646.264,0.04
646.453,0.04
646.642,0.04
646.831,0.04
647.02,0.04
647.209,0.04
647.399,0.04
647.588,0.04
647.777,0.04
647.966,0.04
648.155,0.04
648.344,0.04
648.533,0.04
648.722,0.04
648.911,0.04
649.1,0.04
649.289,0.04
649.478,0.04
649.667,0.04
649.856,0.04
650.045,0.04
650.234,0.04
650.423,0.04
650.611,0.04
650.8,0.04
650.989,0.04
651.178,0.04
651.367,0.04
651.556,0.04
651.744,0.04
651.933,0.04
652.122,0.04
652.311,0.04
652.499,0.04
652.688,0.04
652.877,0.04
653.065,0.04
653.254,0.04
653.443,0.04
653.631,0.04
653.82,0.04
654.009,0.04
654.197,0.04
654.386,0.04
654.574,0.04
654.763,0.04
654.951,0.04
655.14,0.04
655.328,0.04
655.517,0.04
655.705,0.04
655.894,0.04
656.082,0.04
656.271,0.04
656.459,0.04
656.647,0.04
656.836,0.04
657.024,0.03
657.213,0.03
657.401,0.03
657.589,0.03
657.778,0.03
657.966,0.03
658.154,0.03
658.342,0.03
658.531,0.03
658.719,0.04
658.907,0.04
659.095,0.04
659.283,0.04
659.472,0.04
659.66,0.04
659.848,0.04
660.036,0.04
660.224,0.04
660.412,0.04
660.6,0.04
660.788,0.04
660.976,0.04
661.164,0.04
661.352,0.04
661.54,0.04
661.728,0.04
661.916,0.04
662.104,0.04
662.292,0.04
662.48,0.04
662.668,0.04
662.856,0.04
663.044,0.04
663.232,0.04
663.42,0.04
663.607,0.04
663.795,0.04
663.983,0.04
664.171,0.04
664.359,0.04
664.546,0.04
664.734,0.04
664.922,0.04
665.109,0.04
665.297,0.04
665.485,0.04
665.672,0.04
665.86,0.04
666.048,0.04
666.235,0.04
666.423,0.04
666.611,0.04
666.798,0.04
666.986,0.04
667.173,0.04
667.361,0.04
667.548,0.04
667.736,0.04
667.923,0.04
668.111,0.04
668.298,0.04
668.486,0.04
668.673,0.04
668.86,0.04
669.048,0.04
669.235,0.04
669.423,0.04
669.61,0.04
669.797,0.04
669.985,0.04
670.172,0.04
670.359,0.04
670.546,0.04
670.734,0.04
670.921,0.04
671.108,0.04
671.295,0.04
671.482,0.04
671.67,0.04
671.857,0.04
672.044,0.04
672.231,0.04
672.418,0.04
672.605,0.04
672.792,0.04
672.979,0.04
673.167,0.03
673.354,0.03
673.541,0.03
673.728,0.03
673.915,0.03
674.102,0.03
674.289,0.03
674.475,0.03
674.662,0.03
674.849,0.04
675.036,0.04
675.223,0.04
675.41,0.04
675.597,0.04
675.784,0.04
675.97,0.04
676.157,0.04
676.344,0.04
676.531,0.04
676.718,0.04
676.904,0.04
677.091,0.03
677.278,0.03
677.464,0.03
677.651,0.03
677.838,0.03
678.024,0.04
678.211,0.03
678.398,0.04
678.584,0.04
678.771,0.04
678.958,0.04
679.144,0.04
679.331,0.04
679.517,0.04
679.704,0.03
679.89,0.04
680.077,0.04
680.263,0.04
680.45,0.04
680.636,0.04
680.822,0.04
681.009,0.04
681.195,0.04
681.382,0.04
681.568,0.04
681.754,0.04
681.941,0.04
682.127,0.04
682.313,0.04
682.5,0.04
682.686,0.04
682.872,0.04
683.058,0.04
683.245,0.04
683.431,0.03
683.617,0.04
683.803,0.04
683.989,0.04
684.175,0.04
684.362,0.04
684.548,0.03
684.734,0.04
684.92,0.04
685.106,0.04
685.292,0.04
685.478,0.04
685.664,0.04
685.85,0.04
686.036,0.04
686.222,0.03
686.408,0.03
686.594,0.03
686.78,0.03
686.966,0.03
687.152,0.03
687.338,0.04
687.523,0.04
687.709,0.04
687.895,0.04
688.081,0.04
688.267,0.03
688.453,0.04
688.638,0.03
688.824,0.03
689.01,0.03
689.196,0.03
689.381,0.03
689.567,0.03
689.753,0.04
689.938,0.04
690.124,0.04
690.31,0.04
690.495,0.04
690.681,0.04
690.866,0.04
691.052,0.04
691.238,0.04
691.423,0.04
691.609,0.04
691.794,0.04
691.98,0.04
692.165,0.04
692.351,0.03
692.536,0.03
692.721,0.03
692.907,0.03
693.092,0.03
693.278,0.03
693.463,0.03
693.648,0.03
693.834,0.03
694.019,0.03
694.204,0.03
694.39,0.03
694.575,0.03
694.76,0.03
694.945,0.03
695.131,0.03
695.316,0.04
695.501,0.04
695.686,0.04
695.871,0.04
696.057,0.03
696.242,0.03
696.427,0.03
696.612,0.03
696.797,0.03
696.982,0.04
697.167,0.04
697.352,0.04
697.537,0.04
697.722,0.04
697.907,0.04
698.092,0.04
698.277,0.03
698.462,0.03
698.647,0.03
698.832,0.03
699.017,0.03
699.202,0.03
699.387,0.03
699.572,0.03
699.756,0.03
699.941,0.03
700.126,0.03
700.311,0.03
700.496,0.03
700.68,0.03
700.865,0.03
701.05,0.03
701.235,0.03
701.419,0.03
701.604,0.03
701.789,0.03
701.973,0.04
702.158,0.04
702.343,0.04
702.527,0.04
702.712,0.03
702.896,0.03
703.081,0.03
703.265,0.03
703.45,0.03
703.634,0.04
703.819,0.03
704.003,0.03
704.188,0.03
704.372,0.03
704.557,0.03
704.741,0.03
704.926,0.03
705.11,0.03
705.294,0.03
705.479,0.03
705.663,0.03
705.847,0.03
706.032,0.03
706.216,0.03
706.4,0.03
706.585,0.03
706.769,0.03
706.953,0.03
707.137,0.04
707.321,0.04
707.506,0.04
707.69,0.04
707.874,0.04
708.058,0.03
708.242,0.03
708.426,0.03
708.61,0.03
708.794,0.03
708.979,0.03
709.163,0.03
709.347,0.03
709.531,0.03
709.715,0.03
709.899,0.03
710.083,0.03
710.267,0.03
710.45,0.03
710.634,0.03
710.818,0.03
711.002,0.03
711.186,0.03
711.37,0.03
711.554,0.03
711.738,0.03
711.921,0.03
712.105,0.03
712.289,0.03
712.473,0.03
712.656,0.03
712.84,0.03
713.024,0.03
713.208,0.03
713.391,0.03
713.575,0.03
713.759,0.03
713.942,0.03
714.126,0.03
714.309,0.03
714.493,0.03
714.677,0.03
714.86,0.03
715.044,0.03
715.227,0.03
715.411,0.03
715.594,0.03
715.778,0.03
715.961,0.03
716.145,0.03
716.328,0.03
716.511,0.03
716.695,0.03
716.878,0.03
717.062,0.03
717.245,0.03
717.428,0.03
717.612,0.03
717.795,0.03
717.978,0.03
718.161,0.03
718.345,0.03
718.528,0.03
718.711,0.03
718.894,0.03
719.078,0.03
719.261,0.03
719.444,0.03
719.627,0.03
719.81,0.03
719.993,0.03
720.176,0.03
720.359,0.03
720.543,0.03
720.726,0.03
720.909,0.03
721.092,0.03
721.275,0.03
721.458,0.03
721.641,0.03
721.824,0.03
722.006,0.03
722.189,0.03
722.372,0.03
722.555,0.03
722.738,0.03
722.921,0.03
723.104,0.03
723.287,0.03
723.469,0.03
723.652,0.03
723.835,0.03
724.018,0.03
724.201,0.03
724.383,0.03
724.566,0.03
724.749,0.03
724.931,0.03
725.114,0.03
725.297,0.03
725.479,0.03
725.662,0.03
725.845,0.03
726.027,0.03
726.21,0.03
726.392,0.03
726.575,0.03
726.757,0.03
726.94,0.03
727.122,0.03
727.305,0.03
727.487,0.03
727.67,0.03
727.852,0.03
728.035,0.03
728.217,0.03
728.399,0.03
728.582,0.03
728.764,0.03
728.946,0.03
729.129,0.03
729.311,0.03
729.493,0.03
729.676,0.03
729.858,0.03
730.04,0.03
730.222,0.03
730.404,0.03
730.587,0.03
730.769,0.03
730.951,0.03
731.133,0.03
731.315,0.03
731.497,0.04
731.679,0.04
731.862,0.04
732.044,0.03
732.226,0.03
732.408,0.03
732.59,0.03
732.772,0.03
732.954,0.03
733.136,0.03
733.318,0.03
733.5,0.03
733.681,0.03
733.863,0.03
734.045,0.03
734.227,0.03
734.409,0.03
734.591,0.03
734.773,0.03
734.954,0.03
735.136,0.03
735.318,0.03
735.5,0.03
735.682,0.03
735.863,0.03
736.045,0.03
736.227,0.03
736.408,0.03
736.59,0.03
736.772,0.03
736.953,0.03
737.135,0.03
737.317,0.03
737.498,0.03
737.68,0.03
737.861,0.03
738.043,0.03
738.224,0.03
738.406,0.03
738.587,0.03
738.769,0.03
738.95,0.03
739.132,0.03
739.313,0.03
739.494,0.03
739.676,0.03
739.857,0.03
740.039,0.03
740.22,0.03
740.401,0.03
740.583,0.03
740.764,0.03
740.945,0.03
741.126,0.03
741.308,0.03
741.489,0.03
741.67,0.03
741.851,0.03
742.033,0.03
742.214,0.03
742.395,0.03
742.576,0.03
742.757,0.03
742.938,0.03
743.119,0.03
743.3,0.03
743.481,0.03
743.662,0.03
743.843,0.03
744.024,0.03
744.205,0.03
744.386,0.03
744.567,0.03
744.748,0.03
744.929,0.03
745.11,0.03
745.291,0.03
745.472,0.03
745.653,0.03
745.834,0.03
746.014,0.03
746.195,0.03
746.376,0.03
746.557,0.03
746.738,0.03
746.918,0.03
747.099,0.03
747.28,0.03
747.461,0.03
747.641,0.03
747.822,0.03
748.003,0.03
748.183,0.03
748.364,0.03
748.544,0.03
748.725,0.03
748.906,0.03
749.086,0.03
749.267,0.03
749.447,0.03
749.628,0.03
749.808,0.03
749.989,0.03
750.169,0.03
750.35,0.03
750.53,0.03
750.71,0.03
750.891,0.03
751.071,0.03
751.251,0.03
751.432,0.03
751.612,0.03
751.792,0.03
751.973,0.03
752.153,0.03
752.333,0.03
752.514,0.03
752.694,0.03
752.874,0.03
753.054,0.03
753.234,0.03
753.415,0.03
753.595,0.03
753.775,0.03
753.955,0.03
754.135,0.03
754.315,0.03
754.495,0.03
754.675,0.03
754.855,0.03
755.035,0.03
755.215,0.03
755.395,0.03
755.575,0.03
755.755,0.03
755.935,0.03
756.115,0.03
756.295,0.03
756.475,0.03
756.655,0.03
756.835,0.03
757.014,0.03
757.194,0.03
757.374,0.03
757.554,0.03
757.734,0.03
757.913,0.03
758.093,0.03
758.273,0.03
758.453,0.03
758.632,0.03
758.812,0.03
758.992,0.03
759.171,0.03
759.351,0.03
759.531,0.03
759.71,0.03
759.89,0.03
760.069,0.03
760.249,0.03
760.428,0.03
760.608,0.03
760.787,0.03
760.967,0.03
761.146,0.03
761.326,0.03
761.505,0.03
761.685,0.03
761.864,0.03
762.043,0.03
762.223,0.03
762.402,0.03
762.581,0.03
762.761,0.03
762.94,0.03
763.119,0.03
763.299,0.03
763.478,0.03
763.657,0.03
763.836,0.03
764.016,0.03
764.195,0.03
764.374,0.03
764.553,0.03
764.732,0.03
764.911,0.03
765.09,0.03
765.27,0.03
765.449,0.03
765.628,0.03
765.807,0.03
765.986,0.03
766.165,0.03
766.344,0.03
766.523,0.03
766.702,0.03
766.881,0.03
767.06,0.03
767.238,0.03
767.417,0.03
767.596,0.03
767.775,0.03
767.954,0.03
768.133,0.03
768.312,0.03
768.49,0.03
768.669,0.03
768.848,0.03
769.027,0.03
769.205,0.03
769.384,0.03
769.563,0.03
769.742,0.03
769.92,0.03
770.099,0.03
770.277,0.03
770.456,0.03
770.635,0.03
770.813,0.03
770.992,0.03
771.17,0.03
771.349,0.03
771.527,0.03
771.706,0.03
771.884,0.03
772.063,0.03
772.241,0.03
772.42,0.03
772.598,0.03
772.777,0.03
772.955,0.03
773.133,0.03
773.312,0.03
773.49,0.03
773.668,0.03
773.847,0.03
774.025,0.03
774.203,0.03
774.382,0.03
774.56,0.03
774.738,0.03
774.916,0.03
775.094,0.03
775.273,0.03
775.451,0.03
775.629,0.03
775.807,0.03
775.985,0.03
776.163,0.03
776.341,0.03
776.519,0.03
776.697,0.03
776.875,0.03
777.053,0.03
777.231,0.03
777.409,0.03
777.587,0.03
777.765,0.03
777.943,0.03
778.121,0.03
778.299,0.03
778.477,0.03
778.655,0.03
778.833,0.03
779.01,0.03
779.188,0.03
779.366,0.03
779.544,0.03
779.722,0.03
779.899,0.03
780.077,0.03
780.255,0.03
780.432,0.03
780.61,0.03
780.788,0.03
780.965,0.03
781.143,0.03
781.321,0.03
781.498,0.03
781.676,0.03
781.853,0.03
782.031,0.03
782.208,0.03
782.386,0.03
782.563,0.03
782.741,0.03
782.918,0.03
783.096,0.03
783.273,0.03
783.451,0.03
783.628,0.03
783.805,0.03
783.983,0.03
784.16,0.03
784.338,0.03
784.515,0.03
784.692,0.03
784.869,0.03
785.047,0.03
785.224,0.03
785.401,0.03
785.578,0.03
785.756,0.03
785.933,0.03
786.11,0.03
786.287,0.03
786.464,0.03
786.641,0.03
786.818,0.03
786.996,0.03
787.173,0.03
787.35,0.03
787.527,0.03
787.704,0.03
787.881,0.03
788.058,0.03
788.235,0.03
788.412,0.03
788.589,0.03
788.765,0.03
788.942,0.03
789.119,0.03
789.296,0.03
789.473,0.03
789.65,0.03
789.827,0.03
790.003,0.03
790.18,0.03
790.357,0.03
790.534,0.03
790.71,0.03
790.887,0.03
791.064,0.03
791.241,0.03
791.417,0.03
791.594,0.03
791.77,0.03
791.947,0.03
792.124,0.03
792.3,0.03
792.477,0.03
792.653,0.03
792.83,0.03
793.006,0.03
793.183,0.03
793.359,0.03
793.536,0.03
793.712,0.03
793.889,0.03
794.065,0.03
794.242,0.03
794.418,0.03
794.594,0.03
794.771,0.03
794.947,0.03
795.123,0.03
795.3,0.03
795.476,0.03
795.652,0.03
795.828,0.03
796.005,0.03
796.181,0.03
796.357,0.03
796.533,0.03
796.709,0.03
796.886,0.03
797.062,0.03
797.238,0.03
797.414,0.03
797.59,0.03
797.766,0.03
797.942,0.03
798.118,0.03
798.294,0.03
798.47,0.03
798.646,0.03
798.822,0.03
798.998,0.03
799.174,0.03
799.35,0.03
799.526,0.03
799.702,0.03
799.878,0.03
800.053,0.03
800.229,0.03
800.405,0.03
800.581,0.03
800.757,0.03
800.932,0.03
801.108,0.03
801.284,0.03
801.46,0.03
801.635,0.03
801.811,0.03
801.987,0.03
802.162,0.03
802.338,0.03
802.514,0.03
802.689,0.03
802.865,0.03
803.04,0.03
803.216,0.03
803.391,0.03
803.567,0.03
803.742,0.03
803.918,0.03
804.093,0.03
804.269,0.03
804.444,0.03
804.62,0.03
804.795,0.03
804.97,0.03
805.146,0.03
805.321,0.03
805.496,0.03
805.672,0.03
805.847,0.03
806.022,0.03
806.198,0.03
806.373,0.03
806.548,0.03
806.723,0.03
806.899,0.03
807.074,0.03
807.249,0.03
807.424,0.03
807.599,0.03
807.774,0.03
807.949,0.03
808.124,0.03
808.299,0.03
808.475,0.03
808.65,0.03
808.825,0.03
809,0.03
809.175,0.03
809.349,0.03
809.524,0.03
809.699,0.03
809.874,0.03
810.049,0.03
810.224,0.03
810.399,0.03
810.574,0.03
810.749,0.03
810.923,0.03
811.098,0.03
811.273,0.03
811.448,0.03
811.622,0.03
811.797,0.03
811.972,0.03
812.147,0.03
812.321,0.03
812.496,0.03
812.671,0.03
812.845,0.03
813.02,0.03
813.194,0.03
813.369,0.03
813.543,0.03
813.718,0.03
813.892,0.03
814.067,0.03
814.241,0.03
814.416,0.03
814.59,0.03
814.765,0.03
814.939,0.03
815.114,0.03
815.288,0.03
815.462,0.03
815.637,0.03
815.811,0.03
815.985,0.03
816.16,0.03
816.334,0.03
816.508,0.03
816.683,0.03
816.857,0.03
817.031,0.03
817.205,0.03
817.379,0.03
817.554,0.03
817.728,0.03
817.902,0.03
818.076,0.03
818.25,0.03
818.424,0.03
818.598,0.03
818.772,0.03
818.946,0.03
819.12,0.03
819.294,0.03
819.468,0.03
819.642,0.03
819.816,0.03
819.99,0.03
820.164,0.03
820.338,0.03
820.512,0.03
820.686,0.03
820.859,0.03
821.033,0.03
821.207,0.03
821.381,0.03
821.555,0.03
821.728,0.03
821.902,0.03
822.076,0.03
822.25,0.03
822.423,0.03
822.597,0.03
822.771,0.03
822.944,0.03
823.118,0.03
823.291,0.03
823.465,0.03
823.639,0.03
823.812,0.03
823.986,0.03
824.159,0.03
824.333,0.03
824.506,0.03
824.68,0.03
824.853,0.03
825.027,0.03
825.2,0.03
825.373,0.03
825.547,0.03
825.72,0.03
825.893,0.03
826.067,0.03
826.24,0.03
826.413,0.03
826.587,0.03
826.76,0.03
826.933,0.03
827.106,0.03
827.28,0.03
827.453,0.03
827.626,0.03
827.799,0.03
827.972,0.03
828.145,0.03
828.319,0.03
828.492,0.03
828.665,0.03
828.838,0.03
829.011,0.03
829.184,0.03
829.357,0.03
829.53,0.03
829.703,0.03
829.876,0.03
830.049,0.03
830.222,0.03
830.395,0.03
830.567,0.03
830.74,0.03
830.913,0.03
831.086,0.03
831.259,0.03
831.432,0.03
831.604,0.03
831.777,0.03
831.95,0.03
832.123,0.03
832.295,0.03
832.468,0.03
832.641,0.03
832.813,0.03
832.986,0.03
833.159,0.03
833.331,0.03
833.504,0.03
833.677,0.03
833.849,0.03
834.022,0.03
834.194,0.03
834.367,0.03
834.539,0.03
834.712,0.03
834.884,0.03
835.057,0.03
835.229,0.03
835.401,0.03
835.574,0.03
835.746,0.03
835.919,0.03
836.091,0.03
836.263,0.03
836.435,0.03
836.608,0.03
836.78,0.03
836.952,0.03
837.125,0.03
837.297,0.02
837.469,0.02
837.641,0.02
837.813,0.02
837.985,0.02
838.158,0.02
838.33,0.02
838.502,0.02
838.674,0.02
838.846,0.02
839.018,0.02
839.19,0.02
839.362,0.02
839.534,0.02
839.706,0.02
839.878,0.02
840.05,0.02
840.222,0.02
840.394,0.02
840.566,0.02
840.738,0.02
840.909,0.02
841.081,0.02
841.253,0.02
841.425,0.02
841.597,0.02
841.768,0.02
841.94,0.02
842.112,0.02
842.284,0.02
842.455,0.02
842.627,0.02
842.799,0.02
842.97,0.02
843.142,0.02
843.314,0.02
843.485,0.02
843.657,0.02
843.828,0.02
844,0.02
844.171,0.02
844.343,0.02
844.514,0.02
844.686,0.02
844.857,0.02
845.029,0.02
845.2,0.02
845.372,0.02
845.543,0.02
845.714,0.02
845.886,0.02
846.057,0.02
846.228,0.02
846.4,0.02
846.571,0.02
846.742,0.02
846.914,0.02
847.085,0.02
847.256,0.02
847.427,0.02
847.598,0.02
847.77,0.02
847.941,0.02
848.112,0.02
848.283,0.02
848.454,0.02
848.625,0.02
848.796,0.02
848.967,0.02
849.138,0.02
849.309,0.02
849.48,0.02
849.651,0.02
849.822,0.02
849.993,0.02
850.164,0.02
850.335,0.02
850.506,0.02
850.677,0.02
850.848,0.02
851.018,0.02
851.189,0.02
851.36,0.02
851.531,0.02
851.702,0.02
851.872,0.02
852.043,0.02
852.214,0.02
852.385,0.02
852.555,0.02
852.726,0.02
852.897,0.02
853.067,0.02
853.238,0.02
853.408,0.02
853.579,0.02
853.75,0.01
853.92,0.01
854.091,0.02
854.261,0.02
854.432,0.02
854.602,0.02
854.773,0.02
854.943,0.02
855.113,0.02
855.284,0.02
855.454,0.02
855.625,0.02
855.795,0.02
855.965,0.02
856.136,0.02
856.306,0.02
856.476,0.02
856.646,0.02
856.817,0.02
856.987,0.02
857.157,0.02
857.327,0.02
857.497,0.02
857.668,0.02
857.838,0.02
858.008,0.02
858.178,0.02
858.348,0.01
858.518,0.02
858.688,0.01
858.858,0.01
859.028,0.02
859.198,0.02
859.368,0.02
859.538,0.02
859.708,0.02
859.878,0.02
860.048,0.02
860.218,0.02
860.388,0.02
860.558,0.02
860.728,0.02
860.897,0.02
861.067,0.02
861.237,0.02
861.407,0.02
861.577,0.02
861.746,0.02
861.916,0.02
862.086,0.02
862.255,0.02
862.425,0.02
862.595,0.02
862.764,0.02
862.934,0.02
863.104,0.02
863.273,0.02
863.443,0.02
863.612,0.02
863.782,0.02
863.951,0.02
864.121,0.02
864.29,0.02
864.46,0.02
864.629,0.02
864.799,0.02
864.968,0.02
865.137,0.02
865.307,0.02
865.476,0.02
865.646,0.02
865.815,0.02
865.984,0.02
866.153,0.02
866.323,0.02
866.492,0.02
866.661,0.02
866.83,0.02
867,0.02
867.169,0.02
867.338,0.02
867.507,0.02
867.676,0.02
867.845,0.02
868.014,0.02
868.184,0.02
868.353,0.02
868.522,0.02
868.691,0.02
868.86,0.02
869.029,0.02
869.198,0.02
869.367,0.02
869.536,0.02
869.704,0.02
869.873,0.02
870.042,0.02
870.211,0.02
870.38,0.02
870.549,0.02
870.718,0.02
870.886,0.02
871.055,0.02
871.224,0.02
871.393,0.02
871.561,0.02
871.73,0.02
871.899,0.02
872.067,0.02
872.236,0.02
872.405,0.02
872.573,0.02
872.742,0.02
872.911,0.02
873.079,0.02
873.248,0.02
873.416,0.02
873.585,0.02
873.753,0.02
873.922,0.02
874.09,0.03
874.259,0.02
874.427,0.02
874.595,0.02
874.764,0.02
874.932,0.02
875.101,0.02
875.269,0.02
875.437,0.02
875.605,0.02
875.774,0.02
875.942,0.02
876.11,0.02
876.279,0.02
876.447,0.02
876.615,0.02
876.783,0.03
876.951,0.03
877.119,0.03
877.288,0.03
877.456,0.03
877.624,0.03
877.792,0.03
877.96,0.03
878.128,0.03
878.296,0.03
878.464,0.03
878.632,0.03
878.8,0.03
878.968,0.03
879.136,0.03
879.304,0.03
879.472,0.03
879.639,0.03
879.807,0.03
879.975,0.03
880.143,0.03
880.311,0.03
880.479,0.03
880.646,0.03
880.814,0.03
880.982,0.03
881.15,0.03
881.317,0.03
881.485,0.03
881.653,0.03
881.82,0.03
881.988,0.03
882.156,0.02
882.323,0.02
882.491,0.02
882.658,0.02
882.826,0.03
882.993,0.03
883.161,0.03
883.328,0.03
883.496,0.03
883.663,0.03
883.831,0.03
883.998,0.02
884.165,0.03
884.333,0.03
884.5,0.03
884.668,0.03
884.835,0.03
885.002,0.03
885.17,0.03
885.337,0.03
885.504,0.03
885.671,0.03
885.839,0.03
886.006,0.03
886.173,0.03
886.34,0.03
886.507,0.03
886.674,0.03
886.841,0.03
887.009,0.03
887.176,0.03
887.343,0.03
887.51,0.03
887.677,0.03
887.844,0.03
888.011,0.03
888.178,0.03
888.345,0.03